IESNA:LM-63-2002
[TEST] 1
[TESTLAB] AOK
[TESTDATE] 2022-05-13
[ISSUEDATE] 2022-05-13 18:03:42
[NEARFIELD] 
[LAMPPOSITION] 0,0
[OTHER] EVERFINE GO-2000A_V1 SYSTEM
[MANUFAC] AOK
[LUMCAT] A
[LUMINAIRE] AOK-400WiSF-NVY-S5-00-5070-30D-
[LAMPCAT] B
[LAMP] 5050
[BALLAST] E
[BALLASTCAT] F
[OTHER] 
[OTHER] Gamma(deg)    Fz(lm)      Ft(lm)     %Lum    %Lamp
[OTHER]   0- 10     10720.75    10720.75    20.08    20.08
[OTHER]  10- 20     16106.49    26827.24    50.26    50.26
[OTHER]  20- 30      9808.32    36635.56    68.63    68.63
[OTHER]  30- 40      6893.78    43529.34    81.54    81.54
[OTHER]  40- 50      4354.72    47884.06    89.70    89.70
[OTHER]  50- 60      2487.48    50371.54    94.36    94.36
[OTHER]  60- 70      1472.57    51844.11    97.12    97.12
[OTHER]  70- 80       701.31    52545.42    98.43    98.43
[OTHER]  80- 90       288.16    52833.57    98.97    98.97
[OTHER]  90-100       146.95    52980.52    99.25    99.25
[OTHER] 100-110       100.79    53081.31    99.44    99.44
[OTHER] 110-120        79.92    53161.23    99.59    99.59
[OTHER] 120-130        61.98    53223.21    99.70    99.70
[OTHER] 130-140        47.55    53270.76    99.79    99.79
[OTHER] 140-150        39.66    53310.41    99.87    99.87
[OTHER] 150-160        36.37    53346.78    99.93    99.93
[OTHER] 160-170        25.97    53372.75    99.98    99.98
[OTHER] 170-180         9.39    53382.14   100.00   100.00
[OTHER] 
TILT=NONE
1 53382 1 181 25 1 2 0.150 0.200 0.000
1.000 1 384.008
0.0    1.0    2.0    3.0    4.0    5.0    6.0    7.0    8.0    9.0    
 10.0   11.0   12.0   13.0   14.0   15.0   16.0   17.0   18.0   19.0   
 20.0   21.0   22.0   23.0   24.0   25.0   26.0   27.0   28.0   29.0   
 30.0   31.0   32.0   33.0   34.0   35.0   36.0   37.0   38.0   39.0   
 40.0   41.0   42.0   43.0   44.0   45.0   46.0   47.0   48.0   49.0   
 50.0   51.0   52.0   53.0   54.0   55.0   56.0   57.0   58.0   59.0   
 60.0   61.0   62.0   63.0   64.0   65.0   66.0   67.0   68.0   69.0   
 70.0   71.0   72.0   73.0   74.0   75.0   76.0   77.0   78.0   79.0   
 80.0   81.0   82.0   83.0   84.0   85.0   86.0   87.0   88.0   89.0   
 90.0   91.0   92.0   93.0   94.0   95.0   96.0   97.0   98.0   99.0   
 100.0  101.0  102.0  103.0  104.0  105.0  106.0  107.0  108.0  109.0  
 110.0  111.0  112.0  113.0  114.0  115.0  116.0  117.0  118.0  119.0  
 120.0  121.0  122.0  123.0  124.0  125.0  126.0  127.0  128.0  129.0  
 130.0  131.0  132.0  133.0  134.0  135.0  136.0  137.0  138.0  139.0  
 140.0  141.0  142.0  143.0  144.0  145.0  146.0  147.0  148.0  149.0  
 150.0  151.0  152.0  153.0  154.0  155.0  156.0  157.0  158.0  159.0  
 160.0  161.0  162.0  163.0  164.0  165.0  166.0  167.0  168.0  169.0  
 170.0  171.0  172.0  173.0  174.0  175.0  176.0  177.0  178.0  179.0  
 180.0  
0.0    15.0   30.0   45.0   60.0   75.0   90.0   105.0  120.0  135.0  
 150.0  165.0  180.0  195.0  210.0  225.0  240.0  255.0  270.0  285.0  
 300.0  315.0  330.0  345.0  360.0  
124989.99 122863.52 122560.09 122292.22 112541.48 96313.00 85136.57 73961.85 58534.88 50929.42 
 36869.63 26359.91 16033.86 12779.79 9602.94  6426.09  3249.24  72.39    24.02    19.40    
 16.87    15.15    13.89    12.28    10.73    9.59     8.77     8.26     8.21     8.23     
 8.08     6.67     5.67     5.27     5.24     5.39     5.56     5.73     5.53     5.39     
 5.22     5.16     5.02     4.95     4.72     4.57     4.60     4.65     4.53     4.27     
 4.03     4.00     3.89     3.81     3.76     3.73     3.61     3.51     3.41     3.29     
 3.20     3.16     3.12     3.06     2.98     2.90     2.82     2.76     2.69     2.62     
 2.54     2.49     2.45     2.41     2.39     2.38     2.38     2.37     2.37     2.40     
 2.44     2.48     2.53     2.62     2.79     2.94     3.05     3.14     3.23     3.32     
 3.42     3.53     3.62     3.68     3.73     3.82     3.93     4.07     4.25     4.47     
 4.72     4.99     5.28     5.60     5.95     6.32     6.71     7.11     7.52     7.96     
 8.42     8.90     9.40     9.94     10.53    11.18    11.88    12.63    13.45    14.31    
 15.23    16.20    17.24    18.34    19.53    20.78    22.17    23.62    25.12    26.73    
 28.39    30.13    32.00    33.93    35.98    38.09    40.31    42.74    45.32    48.06    
 51.01    54.26    57.84    61.78    66.03    70.67    75.62    80.78    86.18    92.00    
 98.02    104.01   109.91   115.60   121.12   126.56   131.61   136.27   140.60   144.71   
 148.46   151.77   154.52   156.51   157.60   157.78   157.12   155.43   152.84   149.53   
 145.64   141.36   136.84   132.22   127.49   122.71   117.71   112.52   106.96   100.56   
 93.20    
124989.99 122350.99 121846.51 121410.70 119253.15 99907.76 89237.17 78358.83 64875.59 56210.50 
 42799.93 32255.79 21711.65 11167.51 716.15   583.99   530.51   277.87   208.81   193.71   
 178.61   163.13   101.97   139.62   112.69   65.33    33.62    24.48    19.18    15.97    
 13.56    11.60    9.68     8.22     7.53     7.07     6.77     6.67     6.69     6.51     
 6.20     5.96     5.69     5.45     5.26     5.05     4.80     4.62     4.43     4.21     
 3.99     3.86     3.73     3.59     3.44     3.31     3.17     3.05     2.95     2.88     
 2.79     2.72     2.66     2.59     2.53     2.47     2.43     2.39     2.35     2.30     
 2.26     2.21     2.16     2.12     2.12     2.11     2.11     2.11     2.11     2.12     
 2.13     2.15     2.18     2.22     2.26     2.33     2.41     2.49     2.57     2.68     
 2.79     2.92     3.03     3.16     3.29     3.45     3.62     3.80     4.00     4.23     
 4.47     4.73     5.02     5.32     5.64     5.99     6.34     6.72     7.12     7.55     
 8.02     8.51     9.04     9.59     10.17    10.81    11.49    12.22    12.98    13.81    
 14.72    15.72    16.77    17.86    19.03    20.28    21.62    23.09    24.60    26.18    
 27.81    29.55    31.37    33.25    35.18    37.29    39.52    41.88    44.29    47.00    
 50.00    53.22    56.69    60.60    64.80    69.34    74.18    79.35    84.79    90.52    
 96.38    102.32   108.10   113.95   119.61   124.97   130.10   134.81   139.39   143.56   
 147.41   150.95   153.76   155.90   157.15   157.47   156.97   155.57   153.31   150.49   
 147.05   143.19   139.20   135.05   130.73   126.24   121.19   115.69   109.74   103.11   
 93.20    
124989.99 122470.79 121715.88 121173.01 120396.01 109249.92 94214.37 84818.43 75882.09 60996.79 
 52400.56 40748.86 31739.62 22425.92 14820.17 11250.35 7722.41  4194.47  666.53   537.88   
 349.30   218.27   231.59   164.63   146.21   147.99   127.25   106.28   85.31    63.83    
 62.77    53.05    42.72    42.54    36.59    31.10    31.09    26.20    25.10    23.31    
 22.94    22.41    20.51    17.89    17.11    15.40    14.07    12.78    12.15    10.58    
 9.15     8.47     6.98     5.91     5.37     5.11     4.88     4.53     4.17     3.82     
 3.52     3.25     3.06     2.92     2.79     2.64     2.50     2.37     2.28     2.20     
 2.15     2.10     2.07     2.04     2.01     2.00     1.98     1.95     1.93     1.92     
 1.91     1.92     1.94     2.00     2.05     2.13     2.21     2.31     2.41     2.52     
 2.65     2.78     2.93     3.09     3.26     3.44     3.64     3.84     4.05     4.27     
 4.50     4.73     4.98     5.25     5.52     5.83     6.17     6.52     6.90     7.32     
 7.77     8.25     8.74     9.27     9.86     10.51    11.17    11.87    12.66    13.50    
 14.41    15.35    16.33    17.44    18.58    19.79    21.08    22.45    23.89    25.40    
 26.96    28.60    30.30    32.10    34.09    36.16    38.35    40.72    43.26    45.97    
 48.96    52.31    56.00    59.99    64.24    68.77    73.55    78.57    84.04    89.66    
 95.32    100.99   106.75   112.44   117.97   123.30   128.52   133.44   138.19   142.65   
 146.51   149.74   152.31   154.18   155.39   155.86   155.51   154.46   152.85   150.58   
 147.84   144.74   141.46   138.06   133.96   129.42   124.18   118.88   113.41   107.61   
 93.20    
124989.99 123032.65 121343.75 120720.76 119933.40 118718.41 112478.34 97280.70 86410.32 75318.78 
 67370.54 55580.85 44734.53 39991.51 32026.86 24062.21 16137.06 12357.10 6770.34  1223.06  
 981.75   746.06   484.31   350.14   301.62   244.20   186.89   142.11   108.76   89.79    
 78.52    69.30    62.50    56.48    51.41    46.80    42.11    38.66    35.07    31.50    
 28.16    24.45    21.71    20.08    19.16    18.05    17.15    16.13    15.10    13.94    
 12.78    11.75    10.70    9.70     8.76     8.01     7.49     7.02     6.57     6.14     
 5.74     5.39     5.02     4.70     4.43     4.21     3.99     3.78     3.56     3.35     
 3.13     2.92     2.73     2.57     2.42     2.30     2.18     2.07     1.99     1.91     
 1.82     1.78     1.79     1.81     1.87     1.93     2.02     2.11     2.21     2.32     
 2.43     2.56     2.69     2.84     2.99     3.16     3.33     3.50     3.69     3.89     
 4.09     4.31     4.55     4.80     5.09     5.37     5.67     6.02     6.39     6.77     
 7.19     7.68     8.18     8.71     9.26     9.85     10.50    11.16    11.87    12.62    
 13.45    14.31    15.29    16.27    17.29    18.35    19.50    20.75    22.04    23.41    
 24.87    26.40    28.06    29.77    31.60    33.55    35.71    37.99    40.40    43.05    
 46.05    49.20    52.65    56.41    60.44    64.86    69.46    74.39    79.50    84.80    
 90.36    95.85    101.36   107.11   112.69   118.19   123.46   128.34   133.04   137.18   
 140.92   144.12   146.76   148.82   150.26   151.18   151.45   151.11   150.21   148.84   
 147.08   144.81   142.58   139.67   136.20   132.38   128.16   123.20   118.35   113.48   
 93.20    
124989.99 123642.71 121887.42 120585.57 119644.70 117445.20 114215.56 110207.53 106701.77 95578.29 
 83038.90 72833.73 64993.95 55427.90 48092.42 40240.89 30937.23 25166.26 21779.87 15852.21 
 11807.76 9345.31  6901.16  5555.53  4131.05  1392.38  1060.25  753.49   578.14   415.21   
 311.93   238.43   194.15   166.86   144.28   126.67   109.12   91.56    78.48    67.45    
 57.99    49.96    43.66    38.15    33.72    30.20    27.01    24.42    22.04    19.56    
 16.71    14.15    12.47    11.60    10.89    10.22    9.61     9.13     8.64     8.17     
 7.72     7.34     7.00     6.67     6.39     6.12     5.89     5.68     5.49     5.33     
 5.18     5.03     4.86     4.65     4.41     4.19     3.91     3.63     3.34     3.04     
 2.73     2.40     2.08     1.96     1.95     1.98     2.06     2.14     2.23     2.32     
 2.43     2.54     2.66     2.79     2.94     3.09     3.25     3.42     3.60     3.80     
 4.01     4.24     4.47     4.73     5.01     5.30     5.60     5.94     6.30     6.69     
 7.09     7.52     7.98     8.46     8.96     9.50     10.09    10.71    11.38    12.10    
 12.84    13.63    14.48    15.38    16.32    17.29    18.34    19.48    20.67    21.93    
 23.26    24.66    26.16    27.76    29.47    31.32    33.34    35.52    37.91    40.53    
 43.28    46.37    49.74    53.42    57.41    61.68    66.27    71.01    75.90    81.05    
 86.51    91.94    97.35    102.64   107.76   113.01   118.07   122.85   127.29   131.44   
 135.35   138.82   141.75   144.35   146.44   148.04   149.10   149.63   150.18   149.51   
 148.00   146.45   144.93   142.61   139.89   136.83   133.43   129.59   125.35   121.20   
 93.20    
124989.99 124387.00 123420.49 122055.58 120322.05 117219.82 113707.31 110216.57 106546.02 101541.97 
 96613.57 91333.38 84231.51 77423.46 70199.53 62854.44 55930.91 47690.39 39922.76 32938.97 
 27399.41 24155.66 20916.75 18270.56 15838.43 13710.40 12277.55 10929.84 9734.18  7912.56  
 6629.11  5753.78  5052.44  4359.55  3729.66  2994.53  2617.32  2240.04  1854.91  1447.29  
 1181.76  947.07   695.04   519.40   426.44   349.87   285.80   221.72   157.94   125.86   
 99.64    80.51    66.68    55.51    47.77    41.22    35.82    31.78    28.10    25.05    
 22.66    20.86    19.30    17.56    16.13    14.58    13.00    11.83    11.45    11.23    
 11.08    10.90    10.78    10.55    10.34    10.14    9.99     9.80     9.58     9.23     
 8.53     7.48     6.06     4.39     2.07     1.62     1.66     1.72     1.78     1.86     
 1.93     2.02     2.11     2.22     2.33     2.46     2.59     2.73     2.88     3.04     
 3.22     3.40     3.59     3.80     4.02     4.26     4.52     4.80     5.10     5.42     
 5.75     6.12     6.52     6.93     7.42     7.91     8.42     8.94     9.49     10.08    
 10.72    11.40    12.15    12.90    13.68    14.53    15.46    16.46    17.49    18.56    
 19.70    20.93    22.25    23.65    25.16    26.76    28.57    30.48    32.55    34.84    
 37.41    40.20    43.25    46.58    50.21    54.15    58.37    62.81    67.47    72.44    
 77.56    82.77    87.90    93.27    98.58    103.84   109.03   114.01   118.98   123.69   
 128.17   132.38   136.26   139.86   143.03   145.79   148.04   150.34   151.52   152.02   
 151.55   151.08   150.52   148.93   146.87   144.47   141.66   138.25   134.46   130.68   
 93.20    
124989.99 124931.68 124679.18 124096.70 123091.88 120590.14 117234.01 113682.25 110000.19 105005.64 
 99993.86 94483.35 88369.76 81899.21 74742.91 67277.81 59862.35 53267.28 47314.68 41728.88 
 36838.47 32693.89 29250.33 26760.78 24775.01 22792.28 21069.47 19408.61 18081.96 16879.04 
 15584.77 14517.78 13426.79 12538.12 11679.66 10862.41 10167.38 9505.29  8841.93  8174.03  
 7592.65  6993.53  6463.32  5904.39  5407.43  4948.98  4553.07  4173.60  3791.12  3426.59  
 3117.29  2855.98  2594.67  2333.87  2123.65  1937.23  1772.42  1623.14  1494.95  1364.22  
 1246.03  1133.53  1033.99  936.51   847.87   763.19   687.52   614.17   548.30   484.43   
 425.70   376.62   331.39   290.28   253.04   215.87   185.83   159.06   137.83   119.39   
 102.42   87.42    75.42    64.34    53.43    39.05    13.74    8.81     2.41     1.10     
 0.96     0.90     0.89     0.82     0.82     0.82     0.84     0.85     0.86     0.88     
 0.90     0.92     0.94     0.96     0.98     1.00     1.03     1.06     1.09     1.12     
 1.15     1.18     1.22     1.28     1.32     1.38     1.43     1.49     1.56     1.64     
 1.71     1.81     1.91     2.02     2.14     2.27     2.41     2.56     2.74     2.91     
 3.12     3.34     3.57     3.84     4.12     4.43     4.77     5.16     5.57     6.02     
 6.55     7.12     7.72     8.39     9.10     9.88     10.74    11.66    12.61    13.66    
 14.76    15.90    17.10    18.38    19.76    21.20    22.69    24.31    26.03    27.84    
 29.72    31.70    33.74    35.91    38.20    40.61    43.16    46.13    48.92    52.63    
 55.72    59.37    63.82    68.59    73.54    78.68    83.89    89.22    94.91    100.69   
 93.20    
124989.99 125729.84 126205.32 126193.05 125611.64 123800.34 120938.35 117533.64 113948.95 109786.19 
 105212.59 99863.80 94015.08 87672.75 80868.73 73690.87 66803.74 60364.76 54303.69 48500.57 
 43200.71 38955.14 35514.34 32573.71 30234.10 28106.33 26314.60 24716.95 23168.02 21758.61 
 20434.00 19213.53 18097.39 17029.90 16010.55 15099.04 14228.22 13413.44 12652.92 11986.07 
 11268.85 10551.14 9897.83  9264.06  8642.95  8046.96  7480.63  6935.92  6442.63  5985.26  
 5542.28  5142.91  4781.42  4444.47  4150.46  3892.31  3648.59  3430.40  3239.05  3058.00  
 2875.42  2713.04  2558.43  2405.51  2257.83  2119.08  1982.01  1852.22  1722.49  1596.80  
 1479.61  1372.57  1270.74  1177.12  1083.58  990.04   909.32   832.71   760.60   694.91   
 632.36   577.14   524.05   474.38   432.32   394.19   360.48   331.62   305.94   283.97   
 266.03   248.94   231.26   215.27   200.81   187.57   175.21   164.29   154.52   144.41   
 135.86   128.34   120.83   113.33   106.87   100.97   95.81    90.97    86.54    82.89    
 79.12    75.64    72.74    69.66    66.40    63.30    60.42    57.24    54.39    51.50    
 48.85    45.92    43.15    40.66    37.89    35.04    32.16    29.23    26.13    22.67    
 18.98    14.54    10.83    8.16     6.30     4.83     3.67     3.42     3.60     3.95     
 4.33     4.75     5.23     5.73     6.29     6.89     7.52     8.21     8.93     9.70     
 10.52    11.38    12.26    13.22    14.24    15.31    16.45    17.66    18.98    20.36    
 21.79    23.33    25.02    26.82    28.83    31.02    33.32    35.87    38.62    42.24    
 45.20    49.19    53.16    57.75    62.87    68.30    73.97    80.07    86.29    92.67    
 93.20    
124989.99 126427.05 127537.27 128173.91 128343.77 127948.96 126771.54 124826.83 122379.28 119316.21 
 115385.02 110857.00 105477.70 98871.07 91479.97 84180.91 76948.69 69673.26 62754.24 56439.28 
 50955.03 46405.54 42739.33 39606.07 36917.78 34278.40 32088.04 29968.35 28114.68 26296.08 
 24741.48 23188.35 21778.01 20421.53 19242.54 18101.06 17005.30 16036.38 15147.97 14236.05 
 13373.97 12575.91 11817.38 11119.42 10474.45 9780.18  9176.07  8540.18  7938.95  7377.65  
 6861.24  6366.92  5903.42  5463.23  5064.28  4718.02  4406.04  4136.15  3889.04  3663.12  
 3460.72  3275.58  3087.69  2905.67  2742.47  2579.26  2416.28  2274.18  2131.36  1989.30  
 1853.52  1722.07  1590.67  1470.07  1355.74  1244.22  1140.30  1042.71  952.98   869.72   
 787.09   709.94   642.76   583.65   529.82   480.36   440.62   409.98   381.93   352.18   
 333.21   314.51   296.09   278.72   263.37   250.31   237.25   224.22   213.44   203.36   
 194.45   186.42   178.94   172.18   165.43   159.96   154.29   149.27   144.69   140.35   
 136.33   132.69   128.93   125.25   121.93   118.85   115.73   112.79   109.71   106.84   
 104.27   101.72   99.26    96.81    94.35    91.90    89.53    86.97    84.68    82.05    
 79.40    77.10    74.19    71.70    69.29    66.90    64.31    61.25    58.36    55.65    
 52.70    49.89    46.62    43.44    40.89    37.04    33.13    30.75    14.80    10.32    
 8.64     8.50     9.25     10.18    11.16    12.18    13.25    14.36    15.58    16.86    
 18.16    19.44    20.80    22.34    24.04    25.90    27.90    30.17    32.54    35.22    
 38.27    42.00    45.74    50.52    55.41    60.82    66.78    73.11    79.95    86.82    
 93.20    
124989.99 126961.71 128550.76 129985.71 131264.46 132296.71 132957.17 132590.52 130710.29 127684.85 
 123886.92 119303.97 113800.83 107300.84 100192.80 92547.43 84748.33 76986.39 69446.96 62187.40 
 56168.62 51256.80 47414.88 44034.90 40964.62 38210.74 35681.91 33375.75 31247.37 29164.38 
 27423.00 25668.98 24021.99 22550.66 21203.95 19961.57 18783.61 17630.00 16578.82 15493.83 
 14479.89 13530.11 12596.81 11774.01 10952.21 10130.41 9437.51  8815.76  8236.07  7689.75  
 7185.76  6739.80  6329.40  5954.34  5592.07  5242.39  4915.36  4620.74  4359.01  4104.80  
 3880.05  3631.63  3416.92  3215.02  3023.29  2840.10  2660.62  2484.79  2311.81  2147.31  
 1995.36  1851.98  1714.68  1580.26  1454.32  1336.10  1219.96  1115.70  1011.55  918.52   
 835.22   756.28   683.72   617.45   560.93   514.06   472.66   436.76   400.36   374.39   
 355.44   336.91   318.81   301.45   286.44   272.48   261.39   251.46   243.36   235.92   
 228.84   222.71   217.06   211.99   206.96   202.11   197.96   194.11   190.57   187.16   
 183.84   180.77   177.67   174.22   171.50   168.71   165.95   163.38   160.67   158.00   
 155.42   152.85   150.22   147.64   144.50   141.79   138.82   135.89   132.97   130.04   
 126.62   123.20   120.16   117.10   113.92   110.42   107.29   104.08   100.49   96.59    
 92.84    88.33    83.94    79.98    76.59    74.53    73.33    69.13    65.39    61.99    
 58.23    54.41    51.22    46.76    44.07    41.52    23.12    16.69    15.03    16.53    
 16.79    17.56    19.14    20.90    22.74    24.64    26.46    28.28    30.35    32.71    
 35.37    38.43    41.99    45.95    50.46    55.56    61.61    68.02    74.85    81.97    
 93.20    
