IESNA:LM-63-2002
[TEST] 1
[TESTLAB] AOK
[TESTDATE] 2022-05-23
[ISSUEDATE] 2022-05-23 16:18:49
[NEARFIELD] 
[LAMPPOSITION] 0,0
[OTHER] EVERFINE GO-2000A_V1 SYSTEM
[MANUFAC] AOK
[LUMCAT] A
[LUMINAIRE] AOK-400WiSF-NV-S35-00-5070-15D-P
[LAMPCAT] B
[LAMP] 5050
[BALLAST] E
[BALLASTCAT] F
[OTHER] 
[OTHER] Gamma(deg)    Fz(lm)      Ft(lm)     %Lum    %Lamp
[OTHER]   0- 10     23203.58    23203.58    46.57    46.57
[OTHER]  10- 20     12026.40    35229.98    70.71    70.71
[OTHER]  20- 30      4533.17    39763.15    79.80    79.80
[OTHER]  30- 40      2888.63    42651.79    85.60    85.60
[OTHER]  40- 50      2319.77    44971.55    90.26    90.26
[OTHER]  50- 60      1945.00    46916.55    94.16    94.16
[OTHER]  60- 70      1396.37    48312.92    96.96    96.96
[OTHER]  70- 80       700.82    49013.74    98.37    98.37
[OTHER]  80- 90       272.03    49285.78    98.92    98.92
[OTHER]  90-100       140.42    49426.20    99.20    99.20
[OTHER] 100-110        99.66    49525.86    99.40    99.40
[OTHER] 110-120        81.67    49607.53    99.56    99.56
[OTHER] 120-130        62.07    49669.60    99.69    99.69
[OTHER] 130-140        43.57    49713.17    99.77    99.77
[OTHER] 140-150        31.63    49744.79    99.84    99.84
[OTHER] 150-160        35.66    49780.45    99.91    99.91
[OTHER] 160-170        33.78    49814.23    99.98    99.98
[OTHER] 170-180        11.56    49825.79   100.00   100.00
[OTHER] 
TILT=NONE
1 49826 1 181 25 1 2 0.150 0.200 0.000
1.000 1 391.251
0.0    1.0    2.0    3.0    4.0    5.0    6.0    7.0    8.0    9.0    
 10.0   11.0   12.0   13.0   14.0   15.0   16.0   17.0   18.0   19.0   
 20.0   21.0   22.0   23.0   24.0   25.0   26.0   27.0   28.0   29.0   
 30.0   31.0   32.0   33.0   34.0   35.0   36.0   37.0   38.0   39.0   
 40.0   41.0   42.0   43.0   44.0   45.0   46.0   47.0   48.0   49.0   
 50.0   51.0   52.0   53.0   54.0   55.0   56.0   57.0   58.0   59.0   
 60.0   61.0   62.0   63.0   64.0   65.0   66.0   67.0   68.0   69.0   
 70.0   71.0   72.0   73.0   74.0   75.0   76.0   77.0   78.0   79.0   
 80.0   81.0   82.0   83.0   84.0   85.0   86.0   87.0   88.0   89.0   
 90.0   91.0   92.0   93.0   94.0   95.0   96.0   97.0   98.0   99.0   
 100.0  101.0  102.0  103.0  104.0  105.0  106.0  107.0  108.0  109.0  
 110.0  111.0  112.0  113.0  114.0  115.0  116.0  117.0  118.0  119.0  
 120.0  121.0  122.0  123.0  124.0  125.0  126.0  127.0  128.0  129.0  
 130.0  131.0  132.0  133.0  134.0  135.0  136.0  137.0  138.0  139.0  
 140.0  141.0  142.0  143.0  144.0  145.0  146.0  147.0  148.0  149.0  
 150.0  151.0  152.0  153.0  154.0  155.0  156.0  157.0  158.0  159.0  
 160.0  161.0  162.0  163.0  164.0  165.0  166.0  167.0  168.0  169.0  
 170.0  171.0  172.0  173.0  174.0  175.0  176.0  177.0  178.0  179.0  
 180.0  
0.0    15.0   30.0   45.0   60.0   75.0   90.0   105.0  120.0  135.0  
 150.0  165.0  180.0  195.0  210.0  225.0  240.0  255.0  270.0  285.0  
 300.0  315.0  330.0  345.0  360.0  
364553.25 364332.14 363223.89 360842.15 356274.01 307594.97 259874.23 216114.19 163884.34 116442.44 
 82691.40 49099.45 26227.08 6800.75  502.17   307.12   174.23   41.33    28.65    21.79    
 18.71    15.81    13.59    11.97    10.70    9.56     8.51     7.69     7.09     6.90     
 7.23     7.53     7.62     7.27     6.86     6.47     5.82     5.40     5.18     5.09     
 5.13     4.84     4.56     4.16     3.86     3.47     3.33     3.25     3.08     2.93     
 2.68     2.55     2.50     2.50     2.45     2.44     2.43     2.43     2.38     2.33     
 2.33     2.32     2.32     2.31     2.31     2.31     2.31     2.31     2.30     2.30     
 2.29     2.29     2.29     2.29     2.29     2.31     2.31     2.31     2.31     2.31     
 2.31     2.31     2.34     2.40     2.51     2.68     2.82     2.95     3.03     3.09     
 3.16     3.22     3.34     3.43     3.47     3.52     3.60     3.70     3.82     3.98     
 4.17     4.37     4.59     4.84     5.12     5.41     5.70     6.02     6.32     6.62     
 6.90     7.17     7.43     7.68     7.94     8.20     8.49     8.81     9.16     9.54     
 9.93     10.35    10.79    11.25    11.74    12.24    12.78    13.39    14.00    14.67    
 15.35    16.05    16.79    17.58    18.42    19.32    20.29    21.35    22.51    23.82    
 25.29    26.94    28.85    31.02    33.45    36.34    39.77    43.64    48.14    53.60    
 60.50    68.49    77.69    87.81    98.95    111.15   123.51   135.98   148.78   161.24   
 173.08   184.60   195.16   203.89   210.43   214.58   216.19   215.55   212.83   208.32   
 202.55   195.81   188.41   180.58   172.42   163.94   155.46   146.63   137.46   127.64   
 115.49   
364553.25 364421.17 362855.88 360478.02 355591.15 323464.46 274427.93 225391.38 176294.89 119396.68 
 86842.42 51222.00 38613.75 26005.51 13397.26 903.27   773.25   553.12   333.00   114.30   
 88.38    85.43    74.96    50.35    63.68    60.57    33.95    20.09    14.24    11.13    
 8.94     7.70     7.09     6.59     5.88     4.66     4.25     4.17     4.07     3.98     
 3.81     3.86     4.28     4.31     4.30     4.28     4.12     4.06     3.90     3.79     
 3.63     3.54     3.42     3.32     3.29     3.24     3.18     3.10     3.04     2.97     
 2.87     2.74     2.66     2.57     2.51     2.44     2.39     2.31     2.24     2.17     
 2.13     2.08     2.03     2.00     1.97     1.93     1.91     1.91     1.91     1.91     
 1.92     1.93     1.96     2.00     2.05     2.11     2.20     2.27     2.36     2.46     
 2.55     2.66     2.76     2.87     2.98     3.11     3.24     3.38     3.54     3.72     
 3.91     4.12     4.34     4.57     4.82     5.08     5.35     5.62     5.91     6.20     
 6.49     6.79     7.10     7.39     7.68     7.99     8.32     8.68     9.06     9.44     
 9.84     10.27    10.75    11.24    11.73    12.25    12.80    13.39    14.00    14.64    
 15.32    16.02    16.76    17.54    18.36    19.25    20.27    21.37    22.53    23.83    
 25.33    27.00    28.87    31.01    33.46    36.35    39.59    43.43    47.96    53.58    
 60.16    68.12    77.14    87.43    98.67    110.58   123.05   135.44   148.16   160.74   
 172.78   184.44   194.90   203.75   210.30   214.46   216.05   215.45   212.78   208.41   
 202.89   196.35   189.12   181.40   173.37   165.29   156.78   148.04   137.69   126.25   
 115.49   
364553.25 364089.33 361750.70 358719.39 352634.12 340021.11 285065.32 230679.50 178400.85 128281.10 
 94149.82 60204.82 36306.63 26553.50 15621.53 8446.35  1310.47  953.92   683.69   513.38   
 361.31   190.74   153.22   117.24   81.26    71.46    59.27    48.36    42.14    36.26    
 31.78    26.78    22.60    20.23    18.53    16.63    14.67    12.58    10.31    9.65     
 9.45     9.46     8.95     8.41     8.05     7.87     7.09     6.57     6.28     5.89     
 5.42     5.06     4.59     3.98     3.61     3.48     3.34     3.20     3.01     2.83     
 2.68     2.54     2.41     2.32     2.25     2.18     2.12     2.06     2.02     1.98     
 1.94     1.92     1.90     1.88     1.87     1.85     1.84     1.83     1.81     1.81     
 1.80     1.80     1.82     1.88     1.94     2.01     2.09     2.18     2.28     2.38     
 2.49     2.62     2.75     2.89     3.05     3.20     3.37     3.53     3.70     3.88     
 4.07     4.25     4.44     4.64     4.85     5.07     5.29     5.52     5.77     6.03     
 6.31     6.60     6.89     7.19     7.50     7.82     8.16     8.51     8.87     9.25     
 9.63     10.03    10.47    10.91    11.36    11.82    12.31    12.83    13.40    14.01    
 14.64    15.32    16.04    16.86    17.76    18.71    19.77    20.93    22.22    23.66    
 25.25    27.03    29.10    31.39    33.95    36.91    40.38    44.52    49.41    55.25    
 62.30    70.36    79.42    89.73    101.06   112.90   125.00   137.82   150.58   163.33   
 175.57   186.70   196.45   204.27   209.97   213.41   214.61   213.60   210.90   206.58   
 200.99   194.42   187.22   179.59   171.57   163.41   154.44   144.81   134.28   123.16   
 115.49   
364553.25 363857.31 361244.06 356939.03 349534.47 332530.70 305525.70 248003.52 190555.31 143017.70 
 102507.48 74760.46 49242.94 35743.04 26226.31 16768.71 13691.83 8822.85  6173.94  3525.03  
 894.80   694.07   452.89   357.92   262.95   168.40   121.01   91.44    70.64    57.84    
 49.31    42.34    36.83    32.52    29.27    26.49    23.97    21.86    19.99    18.32    
 16.82    15.31    13.56    11.27    9.58     8.87     8.53     8.12     7.73     7.34     
 6.92     6.49     6.06     5.62     5.22     4.88     4.63     4.41     4.20     4.01     
 3.82     3.64     3.47     3.32     3.19     3.08     2.96     2.85     2.74     2.63     
 2.50     2.39     2.28     2.17     2.08     2.00     1.92     1.86     1.80     1.76     
 1.71     1.70     1.70     1.74     1.79     1.87     1.95     2.04     2.14     2.24     
 2.36     2.48     2.61     2.75     2.90     3.04     3.20     3.36     3.53     3.71     
 3.89     4.07     4.27     4.47     4.69     4.91     5.13     5.37     5.60     5.85     
 6.10     6.38     6.66     6.92     7.22     7.52     7.82     8.14     8.46     8.78     
 9.12     9.47     9.83     10.21    10.59    10.99    11.43    11.91    12.40    12.92    
 13.48    14.08    14.74    15.46    16.26    17.14    18.17    19.28    20.48    21.84    
 23.45    25.22    27.19    29.50    32.11    35.21    38.81    43.12    48.17    54.30    
 61.34    69.56    78.52    88.78    99.92    111.68   124.31   136.83   149.70   161.99   
 173.68   184.19   193.18   200.61   205.88   209.14   210.36   209.66   207.14   203.06   
 198.64   192.98   185.96   177.69   169.33   161.42   152.90   143.68   133.65   123.58   
 115.49   
364553.25 363251.71 359873.99 353188.76 339381.88 315547.86 281712.73 242260.29 198194.85 156327.26 
 116700.75 88780.15 60992.94 47277.19 35993.12 28827.66 22907.98 16088.60 12826.40 10394.50 
 7972.21  5549.92  4520.10  2939.28  2243.07  1449.21  964.53   483.10   383.72   277.16   
 197.43   144.50   116.77   89.33    75.35    63.78    54.37    46.91    40.52    35.45    
 31.09    27.25    24.26    21.76    19.69    17.87    16.23    14.91    13.76    12.54    
 11.38    10.16    8.64     7.21     6.67     6.41     6.16     5.94     5.71     5.50     
 5.30     5.12     4.95     4.79     4.65     4.52     4.39     4.29     4.19     4.12     
 4.03     3.94     3.83     3.70     3.56     3.41     3.23     3.04     2.85     2.63     
 2.44     2.16     1.97     1.93     1.93     1.99     2.07     2.15     2.25     2.35     
 2.46     2.59     2.71     2.85     2.99     3.14     3.31     3.46     3.64     3.82     
 4.01     4.21     4.42     4.63     4.84     5.08     5.30     5.54     5.78     6.04     
 6.29     6.55     6.82     7.09     7.37     7.65     7.94     8.24     8.54     8.86     
 9.18     9.50     9.82     10.17    10.51    10.86    11.22    11.60    12.01    12.45    
 12.91    13.42    13.93    14.52    15.23    16.03    16.94    17.94    19.05    20.34    
 21.83    23.59    25.70    28.04    30.86    34.12    37.96    42.57    48.32    54.98    
 62.52    70.91    80.17    90.69    102.05   113.72   125.61   137.76   149.76   161.14   
 171.81   181.27   189.53   196.17   201.24   204.50   206.00   205.71   204.79   201.01   
 196.01   190.15   183.53   176.18   167.92   160.22   152.55   143.89   134.83   125.73   
 115.49   
364553.25 362975.40 359183.78 351507.66 334891.39 306904.35 266227.97 225551.58 184883.07 145324.61 
 113538.90 89586.79 71225.49 58019.35 47719.15 39528.27 32959.29 28365.91 23772.52 19183.64 
 15207.42 12134.50 9954.50  8329.58  6840.31  5575.00  4617.82  3951.41  3480.12  3062.98  
 2687.23  2312.06  2014.14  1751.85  1519.45  1304.03  1111.48  948.65   798.59   660.23   
 538.90   428.44   334.20   278.80   223.40   168.14   130.60   99.75    78.99    62.71    
 50.26    41.59    35.29    30.30    26.67    23.47    20.95    19.00    17.19    15.80    
 14.66    13.76    12.91    12.19    11.38    10.47    9.67     8.89     8.72     8.62     
 8.53     8.46     8.33     8.21     8.09     8.00     7.87     7.71     7.51     7.13     
 6.54     5.70     4.63     2.77     1.62     1.64     1.69     1.76     1.83     1.91     
 1.99     2.08     2.19     2.29     2.42     2.54     2.68     2.81     2.97     3.13     
 3.29     3.47     3.64     3.82     4.01     4.21     4.42     4.64     4.86     5.10     
 5.34     5.59     5.85     6.12     6.38     6.66     6.95     7.24     7.53     7.82     
 8.12     8.43     8.76     9.07     9.38     9.70     10.04    10.38    10.74    11.11    
 11.48    11.88    12.32    12.84    13.38    13.97    14.68    15.51    16.44    17.58    
 18.93    20.54    22.38    24.68    27.43    30.85    34.88    39.81    45.49    52.39    
 60.05    68.78    78.19    88.41    99.34    110.63   122.24   133.57   145.00   155.72   
 165.59   174.68   182.48   189.33   194.70   198.81   201.43   203.63   203.16   201.26   
 198.05   193.82   188.46   182.24   174.47   166.98   159.52   150.95   141.88   132.50   
 115.49   
364553.25 363293.55 359708.33 352324.03 336301.54 308396.82 267261.94 226127.02 185003.79 145095.09 
 112973.68 89551.52 72213.92 59361.66 49094.52 40680.89 33768.44 28473.16 24624.10 20783.44 
 17769.90 15206.55 13029.48 11159.22 9552.40  8253.83  7274.31  6584.21  6105.32  5731.30  
 5399.95  5104.32  4837.56  4584.80  4335.95  4115.14  3906.98  3723.42  3564.17  3405.84  
 3256.72  3112.32  2962.12  2830.26  2696.95  2563.63  2430.32  2296.89  2164.22  2041.33  
 1929.20  1820.59  1718.42  1620.53  1525.14  1436.00  1344.99  1259.08  1172.79  1086.80  
 1005.22  925.29   851.62   777.04   706.03   637.82   571.55   506.74   445.69   391.02   
 338.76   290.41   249.88   209.43   175.68   146.58   122.15   102.07   85.94    72.01    
 60.09    52.33    43.56    36.10    28.13    1.35     1.55     0.96     0.84     0.80     
 0.76     0.73     0.73     0.74     0.76     0.77     0.78     0.79     0.81     0.83     
 0.84     0.86     0.89     0.90     0.93     0.95     0.99     1.02     1.06     1.09     
 1.13     1.17     1.21     1.25     1.30     1.34     1.39     1.43     1.47     1.51     
 1.56     1.62     1.67     1.71     1.77     1.83     1.89     1.96     2.03     2.09     
 2.17     2.25     2.35     2.45     2.57     2.70     2.85     3.04     3.25     3.49     
 3.78     4.14     4.57     5.12     5.74     6.49     7.35     8.30     9.35     10.57    
 11.89    13.27    14.77    16.44    18.23    20.13    22.17    24.33    26.56    28.79    
 31.05    33.34    35.61    37.94    40.29    42.73    45.20    47.76    51.40    54.08    
 56.90    60.02    63.56    67.80    71.90    77.75    84.94    92.58    100.91   110.22   
 115.49   
364553.25 362777.37 358575.76 349929.27 332237.13 303328.79 263534.41 219570.94 176791.41 140021.51 
 117774.08 95654.94 73535.81 61520.27 51825.36 44162.07 37937.30 32959.05 28797.04 25159.21 
 21865.34 18980.81 16336.60 14092.98 12077.69 10681.79 9290.78  8378.86  7693.70  7184.94  
 6785.37  6439.59  6142.66  5906.95  5689.78  5513.16  5365.30  5218.06  5082.80  4953.26  
 4835.75  4727.96  4611.46  4479.29  4348.58  4217.48  4083.98  3951.66  3822.55  3699.87  
 3592.75  3485.85  3382.94  3281.28  3178.03  3079.56  2981.93  2881.11  2782.66  2681.04  
 2579.78  2479.21  2378.76  2273.92  2169.44  2064.96  1965.28  1863.25  1755.59  1647.48  
 1540.58  1436.08  1329.49  1223.00  1121.75  1020.55  929.73   843.09   762.35   686.00   
 616.07   552.01   492.47   439.41   394.17   354.33   322.34   295.54   276.01   257.89   
 240.21   221.63   204.16   188.69   174.48   160.92   149.47   139.60   130.21   121.37   
 112.53   105.50   99.36    93.60    88.40    83.47    79.01    74.69    71.20    67.61    
 63.89    60.63    57.59    54.10    50.93    47.83    44.88    41.85    38.97    36.07    
 33.51    30.96    28.39    25.80    23.22    20.40    17.39    14.48    11.63    9.11     
 6.09     4.48     3.29     2.23     1.82     1.79     1.88     2.00     2.15     2.33     
 2.56     2.83     3.19     3.63     4.18     4.80     5.55     6.42     7.39     8.49     
 9.69     10.99    12.37    13.91    15.54    17.21    19.00    20.83    22.70    24.61    
 26.55    28.53    30.55    32.58    34.63    36.76    38.97    41.27    43.75    47.10    
 50.13    53.17    56.76    60.95    65.26    71.28    78.97    87.33    96.52    106.87   
 115.49   
364553.25 362895.20 358947.74 351005.89 334708.01 307376.22 265853.47 224330.69 182853.70 145914.96 
 117862.22 97454.71 81430.30 68836.06 58936.17 51382.52 45348.05 40095.06 35736.66 32192.74 
 28604.68 25482.21 22364.36 19668.32 17196.21 15158.26 13418.51 11912.87 10617.23 9546.88  
 8650.30  7918.99  7343.03  6922.92  6632.34  6400.02  6204.66  6033.49  5884.03  5750.23  
 5625.59  5500.86  5373.48  5253.68  5133.57  5022.12  4899.45  4772.40  4646.11  4517.53  
 4396.14  4276.76  4158.20  4041.90  3921.79  3809.60  3692.62  3575.16  3450.87  3321.77  
 3190.25  3056.69  2919.23  2789.39  2662.12  2534.85  2407.60  2281.27  2151.51  2017.95  
 1882.70  1746.09  1621.53  1503.17  1382.93  1263.24  1141.15  1034.03  933.06   839.23   
 751.30   668.19   596.85   534.32   479.66   433.16   397.63   369.06   344.88   326.03   
 307.35   287.78   269.56   253.51   238.93   224.38   213.11   202.61   192.70   184.10   
 176.56   169.67   163.39   157.48   152.14   147.17   143.09   138.85   134.99   131.45   
 128.31   125.07   121.91   119.12   116.50   113.64   111.01   108.43   105.98   103.47   
 101.01   98.65    96.39    94.13    91.85    89.42    86.94    84.43    81.79    79.15    
 76.33    73.81    71.28    68.37    65.69    62.92    59.69    56.37    53.50    50.49    
 47.05    43.86    40.77    37.91    34.96    31.23    19.16    9.71     7.63     7.02     
 7.84     9.17     10.60    12.18    13.85    15.64    17.54    19.52    21.61    23.69    
 25.77    27.85    29.96    32.06    34.10    36.10    38.07    40.04    42.00    44.15    
 46.48    49.65    53.04    57.18    61.47    67.37    74.98    83.57    93.37    104.09   
 115.49   
364553.25 362657.59 358530.36 350430.62 334230.35 307083.32 267863.60 223314.65 180966.33 146459.34 
 119569.23 101827.14 84163.30 72335.27 63154.76 55627.08 49898.58 45169.38 40820.74 36811.05 
 32982.11 29545.59 26294.19 23332.66 20697.49 18483.80 16530.34 14824.64 13285.70 11921.95 
 10738.47 9556.69  8656.64  7977.25  7494.34  7145.63  6875.71  6634.46  6410.86  6213.58  
 6050.13  5889.82  5747.54  5625.03  5505.89  5380.79  5257.63  5144.90  5039.87  4927.28  
 4808.55  4675.86  4546.62  4424.63  4302.70  4167.56  4030.70  3882.22  3732.45  3583.86  
 3437.29  3293.93  3145.40  3004.42  2868.31  2727.45  2588.15  2444.45  2294.72  2146.13  
 1999.55  1862.21  1725.71  1580.45  1443.10  1315.03  1192.64  1076.60  960.61   860.63   
 773.11   689.92   615.09   549.65   498.91   457.39   421.31   389.41   363.88   345.12   
 326.74   306.80   288.01   272.08   258.58   247.21   237.63   229.36   222.26   216.04   
 210.00   204.69   199.77   195.68   191.72   188.07   185.03   182.24   179.59   177.11   
 175.02   172.98   171.07   169.11   167.37   165.50   163.67   161.77   159.64   157.25   
 155.16   152.95   150.77   148.51   146.38   144.25   141.82   139.39   136.92   134.35   
 131.70   128.71   125.27   121.84   118.73   115.37   112.03   108.38   104.96   101.22   
 97.10    93.20    89.34    85.53    81.70    78.59    74.89    69.77    64.93    62.96    
 59.35    56.19    51.62    48.88    45.04    23.17    20.42    20.76    22.13    23.45    
 25.51    27.99    30.59    33.29    35.95    38.31    40.36    42.37    44.14    45.75    
 47.24    48.83    50.88    53.63    57.39    62.91    70.30    79.54    89.74    100.79   
 115.49   
