IESNA:LM-63-2002
[TEST] 1
[TESTLAB] AOK
[TESTDATE] 2022-05-31
[ISSUEDATE] 2022-05-31 19:00:08
[NEARFIELD] 
[LAMPPOSITION] 0,0
[OTHER] EVERFINE GO-2000A_V1 SYSTEM
[MANUFAC] AOK
[LUMCAT] A
[LUMINAIRE] AOK-1200WiSF-NV-S5-00-5070-3585D-P
[LAMPCAT] B
[LAMP] 5050
[BALLAST] E
[BALLASTCAT] F
[OTHER] 
[OTHER] Gamma(deg)    Fz(lm)      Ft(lm)     %Lum    %Lamp
[OTHER]   0- 10     12153.99    12153.99     7.43     7.43
[OTHER]  10- 20     27577.64    39731.64    24.29    24.29
[OTHER]  20- 30     31981.37    71713.00    43.84    43.84
[OTHER]  30- 40     30836.58   102549.58    62.70    62.70
[OTHER]  40- 50     25292.67   127842.25    78.16    78.16
[OTHER]  50- 60     18086.12   145928.38    89.22    89.22
[OTHER]  60- 70     10258.14   156186.52    95.49    95.49
[OTHER]  70- 80      4462.87   160649.39    98.22    98.22
[OTHER]  80- 90      1491.45   162140.84    99.13    99.13
[OTHER]  90-100       551.99   162692.83    99.47    99.47
[OTHER] 100-110       263.53   162956.36    99.63    99.63
[OTHER] 110-120       181.30   163137.66    99.74    99.74
[OTHER] 120-130       134.40   163272.06    99.82    99.82
[OTHER] 130-140       101.71   163373.77    99.88    99.88
[OTHER] 140-150        76.93   163450.70    99.93    99.93
[OTHER] 150-160        58.21   163508.91    99.96    99.96
[OTHER] 160-170        42.76   163551.67    99.99    99.99
[OTHER] 170-180        15.64   163567.31   100.00   100.00
[OTHER] 
TILT=NONE
1 1.6357e+005 1 181 25 1 2 0.150 0.200 0.000
1.000 1 1188.12
0.0    1.0    2.0    3.0    4.0    5.0    6.0    7.0    8.0    9.0    
 10.0   11.0   12.0   13.0   14.0   15.0   16.0   17.0   18.0   19.0   
 20.0   21.0   22.0   23.0   24.0   25.0   26.0   27.0   28.0   29.0   
 30.0   31.0   32.0   33.0   34.0   35.0   36.0   37.0   38.0   39.0   
 40.0   41.0   42.0   43.0   44.0   45.0   46.0   47.0   48.0   49.0   
 50.0   51.0   52.0   53.0   54.0   55.0   56.0   57.0   58.0   59.0   
 60.0   61.0   62.0   63.0   64.0   65.0   66.0   67.0   68.0   69.0   
 70.0   71.0   72.0   73.0   74.0   75.0   76.0   77.0   78.0   79.0   
 80.0   81.0   82.0   83.0   84.0   85.0   86.0   87.0   88.0   89.0   
 90.0   91.0   92.0   93.0   94.0   95.0   96.0   97.0   98.0   99.0   
 100.0  101.0  102.0  103.0  104.0  105.0  106.0  107.0  108.0  109.0  
 110.0  111.0  112.0  113.0  114.0  115.0  116.0  117.0  118.0  119.0  
 120.0  121.0  122.0  123.0  124.0  125.0  126.0  127.0  128.0  129.0  
 130.0  131.0  132.0  133.0  134.0  135.0  136.0  137.0  138.0  139.0  
 140.0  141.0  142.0  143.0  144.0  145.0  146.0  147.0  148.0  149.0  
 150.0  151.0  152.0  153.0  154.0  155.0  156.0  157.0  158.0  159.0  
 160.0  161.0  162.0  163.0  164.0  165.0  166.0  167.0  168.0  169.0  
 170.0  171.0  172.0  173.0  174.0  175.0  176.0  177.0  178.0  179.0  
 180.0  
0.0    15.0   30.0   45.0   60.0   75.0   90.0   105.0  120.0  135.0  
 150.0  165.0  180.0  195.0  210.0  225.0  240.0  255.0  270.0  285.0  
 300.0  315.0  330.0  345.0  360.0  
131475.61 127443.17 125031.86 121746.74 109783.18 99359.19 88666.48 77052.82 63920.94 53943.39 
 44245.03 34786.97 31752.93 29404.41 27086.35 24930.98 22937.27 17955.44 14058.40 11249.06 
 8452.84  5656.63  3384.93  954.31   163.36   101.76   47.80    25.92    21.97    18.97    
 16.88    15.43    14.34    13.13    12.22    11.42    10.63    10.04    9.54     9.09     
 8.79     8.62     8.40     8.20     8.03     7.80     7.48     7.23     6.91     6.78     
 6.91     7.09     7.23     7.31     7.33     7.32     7.03     6.79     6.51     6.20     
 5.89     5.71     5.52     5.42     5.33     5.27     5.21     5.17     5.13     5.09     
 5.06     5.04     5.03     5.03     5.05     5.08     5.12     5.19     5.28     5.39     
 5.52     5.71     5.92     6.13     6.37     6.67     6.98     7.33     7.71     8.11     
 8.57     9.05     9.54     10.09    10.71    11.38    12.11    12.90    13.77    14.74    
 15.74    16.86    18.03    19.31    20.66    22.06    23.53    25.05    26.71    28.43    
 30.18    32.04    33.92    35.87    37.85    39.94    42.13    44.37    46.78    49.27    
 51.87    54.61    57.49    60.43    63.47    66.62    70.00    73.47    77.07    80.67    
 84.37    88.18    92.09    96.08    100.02   103.97   107.96   112.12   116.40   120.81   
 125.31   129.94   134.95   140.17   145.43   150.98   156.72   162.66   168.83   175.14   
 181.85   188.41   194.73   201.04   207.32   213.23   218.89   224.02   228.50   232.45   
 235.61   238.83   242.04   243.55   244.17   243.75   242.40   239.92   236.31   231.52   
 225.59   219.43   213.44   207.43   201.23   194.38   187.69   177.81   169.71   160.50   
 150.50   
131475.61 127082.77 124538.48 122565.46 116244.18 106258.74 95032.18 83253.92 74491.70 60947.43 
 50634.17 41786.77 34105.82 31029.67 28677.85 26383.05 24332.66 22255.75 17467.17 13802.93 
 10884.49 8532.96  5727.54  3969.38  2211.22  467.62   355.50   243.38   132.03   100.93   
 83.01    64.49    62.23    51.71    35.20    28.04    22.81    19.91    18.32    17.04    
 16.11    15.26    14.21    13.26    12.49    11.92    11.43    10.95    10.51    10.01    
 9.49     8.91     8.24     7.78     7.41     7.15     6.97     6.85     6.73     6.62     
 6.55     6.45     6.32     6.20     6.07     5.94     5.81     5.63     5.48     5.46     
 5.49     5.55     5.63     5.73     5.73     5.75     5.79     5.79     5.84     5.90     
 5.95     6.03     6.18     6.36     6.57     6.81     7.10     7.40     7.73     8.11     
 8.58     9.07     9.57     10.13    10.78    11.49    12.23    13.06    14.01    15.01    
 16.05    17.15    18.33    19.61    20.94    22.33    23.80    25.36    26.99    28.69    
 30.40    32.22    34.15    36.18    38.18    40.32    42.56    44.86    47.22    49.70    
 52.33    55.13    58.02    60.95    63.90    67.01    70.23    73.58    76.91    80.29    
 83.74    87.18    90.71    94.25    97.82    101.46   105.26   109.15   113.15   117.32   
 122.19   127.05   131.92   137.04   142.34   147.94   153.58   159.61   165.69   171.98   
 178.22   184.43   190.46   196.66   202.37   207.84   212.79   217.22   221.26   224.75   
 227.55   230.17   232.45   234.07   234.11   233.58   231.94   229.52   225.73   222.15   
 218.23   213.75   209.40   205.46   199.86   193.99   187.36   180.44   172.90   165.21   
 150.50   
131475.61 127703.41 125141.98 123474.42 121332.81 111138.66 102282.13 93357.99 81603.75 74065.53 
 61851.49 53024.84 45016.55 35680.55 31630.10 29098.01 26712.41 24605.58 22525.63 20500.45 
 16234.08 12941.37 10508.01 8084.40  5660.78  4253.54  2556.90  1062.75  708.41   368.63   
 272.82   201.75   156.70   126.35   107.99   89.76    72.94    62.83    54.39    46.37    
 41.59    37.33    33.59    30.94    28.71    26.69    24.59    22.69    21.18    19.83    
 18.64    17.43    15.79    13.93    12.63    11.92    11.60    11.29    10.91    10.45    
 9.88     9.37     8.91     8.60     8.31     8.07     7.84     7.62     7.42     7.18     
 6.94     6.72     6.52     6.34     6.16     6.01     5.90     5.82     5.77     5.75     
 5.75     5.84     6.01     6.26     6.57     6.92     7.32     7.74     8.21     8.70     
 9.30     9.94     10.66    11.46    12.35    13.33    14.32    15.44    16.62    17.86    
 19.17    20.55    21.97    23.44    25.02    26.65    28.33    30.10    31.94    33.86    
 35.81    37.82    39.97    42.16    44.44    46.77    49.20    51.65    54.20    56.78    
 59.44    62.13    64.92    67.72    70.53    73.42    76.39    79.42    82.49    85.65    
 88.89    92.28    95.77    99.36    103.09   106.95   111.05   115.35   119.76   124.31   
 128.99   133.72   138.59   143.73   149.12   154.56   160.06   165.50   170.82   176.30   
 181.74   187.04   192.05   196.80   201.23   205.57   209.62   213.20   216.41   218.44   
 220.69   222.41   223.63   224.30   224.37   223.74   222.49   220.67   218.48   217.10   
 214.05   211.57   208.66   204.78   200.54   195.54   190.70   184.52   178.33   171.91   
 150.50   
131475.61 128547.47 125883.82 124139.62 122294.37 119975.48 113167.85 105273.19 97689.14 89963.77 
 79739.22 72483.02 64637.09 55987.15 48250.54 42300.68 34369.55 30778.65 28150.80 25999.48 
 24027.71 22055.93 20084.09 18194.41 14799.54 12629.06 10225.68 7762.20  6558.39  4820.17  
 3690.04  2481.30  1277.95  762.82   529.64   386.33   298.65   246.56   194.68   165.58   
 144.83   126.27   110.17   96.11    84.84    74.14    65.26    57.91    51.86    47.05    
 42.83    38.76    34.53    29.80    25.59    23.15    22.25    21.68    20.42    18.59    
 16.43    14.85    13.88    13.22    12.62    11.99    11.48    11.00    10.52    10.05    
 9.64     9.22     8.83     8.46     8.11     7.76     7.42     7.15     6.94     6.81     
 6.79     6.83     6.97     7.28     7.71     8.21     8.74     9.32     9.93     10.64    
 11.40    12.22    13.07    14.05    15.06    16.12    17.24    18.46    19.76    21.11    
 22.53    24.00    25.55    27.22    28.95    30.69    32.49    34.41    36.42    38.45    
 40.46    42.64    44.88    47.22    49.61    52.09    54.68    57.26    59.91    62.62    
 65.54    68.58    71.71    74.80    77.96    81.26    84.71    88.25    91.86    95.57    
 99.37    103.25   107.27   111.36   115.49   119.73   124.07   128.41   132.76   137.16   
 141.71   146.30   150.77   155.27   159.78   164.29   168.67   172.94   177.11   181.17   
 185.13   188.98   192.60   196.21   199.65   202.83   205.70   208.10   210.24   212.09   
 213.55   214.74   215.56   215.98   216.00   215.69   215.23   215.30   214.07   212.53   
 210.82   208.80   206.57   204.17   202.79   199.93   195.57   190.39   184.74   179.66   
 150.50   
131475.61 129672.52 127917.28 125871.15 123666.55 121888.74 120067.82 117831.41 112653.84 106024.54 
 101031.42 95622.87 89079.61 83614.92 76037.47 70006.97 65989.52 58868.85 52863.84 47575.21 
 42461.98 38099.61 32403.16 28954.54 26509.88 24363.37 22414.19 20441.33 18637.28 16951.71 
 15318.01 13797.41 11525.47 9750.18  7980.73  6514.45  5215.70  4312.54  3397.50  2679.42  
 2005.53  1451.68  1142.00  835.27   528.53   413.66   333.14   266.54   216.11   177.72   
 150.10   128.09   111.02   94.00    80.50    69.56    60.24    53.02    48.45    43.04    
 38.84    35.68    32.07    28.82    25.78    23.50    20.42    17.02    15.42    14.53    
 13.80    13.19    12.72    12.06    11.54    11.05    10.51    9.92     9.39     8.91     
 8.58     8.41     8.41     8.78     9.27     9.85     10.51    11.22    11.98    12.80    
 13.70    14.66    15.66    16.78    17.99    19.28    20.63    22.04    23.54    25.18    
 26.87    28.64    30.51    32.44    34.52    36.64    38.85    41.15    43.51    45.95    
 48.44    51.10    53.82    56.64    59.52    62.52    65.58    68.74    71.99    75.36    
 78.74    82.23    85.84    89.52    93.18    96.94    100.80   104.75   108.73   112.69   
 116.64   120.56   124.54   128.56   132.55   136.53   140.52   144.58   148.62   152.62   
 156.53   160.48   164.35   168.24   172.03   175.74   179.40   182.85   185.92   188.71   
 191.44   193.95   196.22   198.20   200.04   201.74   203.33   204.78   206.05   207.09   
 208.12   209.07   209.88   210.53   211.20   211.69   212.80   212.38   211.65   210.73   
 209.84   208.52   207.92   207.62   206.19   203.75   201.15   197.86   194.35   190.03   
 150.50   
131475.61 130910.98 130363.80 129143.91 127064.25 125329.49 123494.82 121771.88 119955.55 117975.49 
 116104.58 114252.03 112264.20 109924.52 107823.99 105488.72 101315.37 97578.38 93170.57 89668.92 
 86608.05 82365.14 78290.96 74385.80 70682.69 66504.55 62259.31 57909.13 53975.07 50477.68 
 47133.24 43281.94 39523.16 36144.42 33076.93 30007.43 27158.85 24664.86 22172.30 19835.41 
 17803.43 16099.03 14562.84 13125.86 11808.50 10451.13 9216.22  8098.57  7043.50  5979.24  
 4986.06  4011.85  3326.19  2640.52  1957.20  1576.84  1296.39  1060.26  852.87   679.54   
 531.66   412.07   322.34   268.92   215.49   162.22   129.00   103.85   84.15    68.43    
 55.36    46.56    40.31    34.73    28.70    23.69    19.49    17.74    16.49    14.89    
 13.18    11.09    9.14     8.06     8.33     8.84     9.39     9.98     10.65    11.38    
 12.19    13.04    14.01    15.05    16.16    17.32    18.54    19.87    21.28    22.80    
 24.35    25.96    27.64    29.48    31.45    33.49    35.62    37.82    40.23    42.71    
 45.27    47.91    50.70    53.55    56.51    59.59    62.72    65.80    69.02    72.40    
 75.87    79.55    83.32    86.97    90.86    94.85    98.90    103.06   107.22   111.37   
 115.71   119.91   124.14   128.26   132.39   136.39   140.47   144.31   148.08   151.76   
 154.65   157.19   160.56   163.95   167.35   170.76   174.03   177.08   179.99   182.84   
 185.55   188.14   190.55   192.92   195.12   197.19   199.19   201.02   202.78   204.43   
 205.97   207.42   208.76   210.14   211.56   212.35   213.04   213.85   214.67   217.07   
 217.00   215.42   213.94   212.73   212.85   212.27   211.14   209.17   206.51   203.41   
 150.50   
131475.61 132164.46 132901.10 132944.55 132243.29 131791.75 130948.96 129976.39 128798.26 127417.07 
 126346.51 124908.48 123723.62 122398.20 120961.65 119545.57 117848.25 116243.23 114706.21 113196.13 
 111201.95 109027.65 107141.45 105377.63 103163.81 100578.67 97891.03 95607.64 92880.65 89970.20 
 86703.88 83909.59 80624.32 77612.73 74498.15 71076.22 67927.35 64644.97 61184.26 58433.51 
 55856.92 53220.08 50599.48 47930.75 45232.27 42728.66 40205.92 37752.03 35400.74 32979.20 
 30671.70 28583.62 26556.27 24615.45 22675.59 20828.13 19208.14 17607.81 16035.17 14555.25 
 13209.46 12019.74 10899.15 9764.57  8765.42  7824.64  6970.63  6150.82  5432.42  4760.29  
 4148.49  3590.32  3100.21  2669.37  2239.31  1871.71  1532.65  1234.55  980.82   767.85   
 581.88   428.69   319.70   210.71   102.20   32.41    13.89    11.75    10.33    9.17     
 8.68     8.83     8.61     8.19     4.88     4.56     4.81     5.19     5.29     5.13     
 5.32     5.57     5.92     6.51     6.48     6.73     7.26     7.67     7.78     8.36     
 9.03     9.11     9.70     10.35    11.26    12.27    12.90    13.56    14.25    14.97    
 15.76    16.59    17.45    18.39    19.39    20.42    21.48    22.61    23.76    24.94    
 26.17    27.46    28.83    30.17    31.51    32.87    34.42    36.04    37.67    39.35    
 41.12    42.92    44.78    46.77    48.83    51.07    53.31    55.65    58.12    60.63    
 63.22    65.90    68.73    71.70    74.72    77.99    81.65    85.58    89.77    94.12    
 98.53    103.18   108.05   113.21   117.79   122.76   127.80   133.26   138.68   146.17   
 150.95   155.28   157.42   161.77   165.75   169.41   173.83   176.43   179.07   181.24   
 150.50   
131475.61 133389.16 135469.91 136807.26 137417.97 138333.16 139029.38 139727.38 140113.63 140448.96 
 140871.86 141379.56 141623.84 141789.89 142059.43 142221.65 142102.99 142153.76 141826.55 141135.95 
 140257.98 139126.41 137688.56 136116.02 134522.38 132564.25 130106.74 127340.54 124288.86 120894.73 
 117605.17 114344.65 110932.42 107250.82 103654.89 99835.60 95926.41 91872.35 88167.71 84883.07 
 81490.74 78373.10 74958.24 71884.51 68869.88 65759.73 62832.83 59871.43 56881.73 54112.06 
 51399.53 48640.06 46119.92 43694.03 41344.97 38928.62 36627.67 34663.86 32722.86 30725.98 
 28700.64 26916.25 25148.78 23553.29 21887.52 20365.01 18863.82 17490.81 16094.91 14770.84 
 13599.49 12441.35 11392.86 10345.18 9297.50  8420.51  7636.75  6907.34  6228.29  5602.00  
 5050.81  4542.43  4084.32  3667.51  3290.38  2940.79  2614.96  2334.75  2097.52  1894.74  
 1706.87  1513.03  1335.77  1200.06  1060.24  920.38   811.69   715.79   621.26   548.18   
 481.63   424.78   376.44   335.03   298.27   265.12   235.23   209.30   186.54   165.74   
 147.57   133.00   120.71   108.43   96.74    83.64    71.34    60.50    52.20    40.44    
 21.26    12.58    11.53    11.96    12.63    13.49    14.40    15.38    16.35    17.24    
 18.59    19.91    21.08    22.24    23.36    24.88    26.56    27.67    28.20    28.92    
 30.05    31.30    33.13    34.69    35.73    37.13    38.43    39.54    40.25    42.53    
 45.62    47.50    48.75    49.25    51.46    53.93    56.63    59.48    62.51    65.91    
 69.58    73.59    77.90    82.55    87.41    92.66    98.06    104.46   110.67   116.89   
 123.25   127.02   132.06   137.46   142.83   148.29   154.13   158.69   163.24   167.47   
 150.50   
131475.61 134534.04 137720.19 140868.95 143557.92 145953.09 148526.00 150925.89 153546.55 155776.66 
 157534.59 158596.11 158988.77 159361.43 158680.31 156889.31 154649.80 152369.06 149658.97 145895.48 
 142113.84 138341.16 134663.25 131224.46 128036.18 124696.90 121455.98 118405.49 115228.09 112454.38 
 109349.70 106289.26 103284.11 100204.12 97237.43 94019.02 90845.14 87716.23 84668.92 81746.84 
 78599.98 75391.96 72394.63 69682.67 67051.27 64459.66 61846.71 59470.52 57142.79 54848.85 
 52373.50 50112.34 48027.04 45933.59 43663.55 41531.91 39600.55 37669.64 35778.72 33883.66 
 31978.09 30198.12 28544.84 26790.68 25278.69 23768.84 22462.61 21069.32 19697.91 18358.91 
 16980.28 15647.64 14327.95 13072.51 11896.75 10674.90 9497.18  8351.49  7393.70  6607.72  
 5828.54  5111.92  4507.06  4020.19  3597.35  3236.75  2956.83  2676.92  2397.91  2205.15  
 2020.63  1826.95  1638.77  1472.70  1325.50  1197.33  1082.30  978.14   888.62   815.11   
 752.14   698.04   650.98   608.71   571.60   540.06   512.61   488.33   466.67   447.63   
 432.67   415.29   397.05   380.27   364.52   350.60   336.85   323.24   309.62   295.13   
 281.25   267.14   251.60   236.07   220.53   204.76   189.58   174.88   160.33   144.55   
 127.57   100.92   82.13    61.23    44.37    40.71    36.13    28.10    17.10    15.62    
 16.46    17.41    18.39    19.47    20.61    21.85    23.10    24.40    25.94    27.99    
 29.94    31.70    33.05    35.23    43.91    42.42    38.78    40.83    43.15    45.79    
 48.71    52.01    55.57    59.58    63.90    68.61    73.64    78.86    84.32    90.23    
 97.36    103.62   108.98   115.79   121.81   130.08   136.22   142.25   148.61   154.87   
 150.50   
131475.61 135623.97 139965.24 144544.43 149081.38 153289.69 157123.04 160632.58 163082.48 165014.07 
 164902.87 163215.57 161194.33 157807.99 153576.88 149495.56 145626.52 141928.48 138420.17 135193.85 
 132002.16 128602.56 125064.95 121289.79 117484.60 113530.87 109704.27 105965.04 102552.25 99354.77 
 96567.53 94352.54 92302.96 90551.17 89118.42 87944.78 86773.27 85521.57 84132.72 82423.08 
 80506.20 78551.32 76572.08 74352.41 72082.50 69732.06 67336.88 64793.04 62284.09 59795.47 
 57105.79 54455.33 52077.36 49886.10 47624.51 45254.15 43047.05 40909.46 38644.22 36301.78 
 34075.00 31987.13 30034.61 28075.42 26020.11 24047.95 22252.74 20391.02 18520.69 16646.29 
 14844.00 13318.90 11900.03 10744.05 9590.67  8579.83  7557.76  6633.80  5776.89  5139.85  
 4589.56  4092.38  3598.47  3198.75  2847.71  2566.50  2330.19  2110.53  1921.87  1774.89  
 1635.18  1491.47  1355.04  1234.52  1135.69  1037.03  960.01   894.08   837.25   787.19   
 744.44   707.62   674.83   646.31   619.71   594.87   572.17   551.69   533.46   515.73   
 498.53   483.34   469.18   455.51   442.23   429.18   416.17   404.25   391.51   380.96   
 370.90   361.24   351.54   340.40   328.32   316.33   304.86   293.18   281.92   270.11   
 258.12   245.69   231.46   218.84   206.62   194.45   182.46   169.94   156.89   142.92   
 128.72   108.55   88.32    47.45    28.33    23.55    21.26    18.69    17.06    18.17    
 19.51    20.93    22.46    24.12    25.84    27.71    29.86    32.25    34.42    36.18    
 39.77    51.39    43.95    46.58    50.22    54.41    59.02    63.83    69.03    74.60    
