IESNA:LM-63-2002
[TEST] 1
[TESTLAB] AOK
[TESTDATE] 2022-05-27
[ISSUEDATE] 2022-05-27 09:24:44
[NEARFIELD] 
[LAMPPOSITION] 0,0
[OTHER] EVERFINE GO-2000A_V1 SYSTEM
[MANUFAC] AOK
[LUMCAT] A
[LUMINAIRE] AOK-600WiSF-HV-S5-00-5070-15D-
[LAMPCAT] B
[LAMP] 5050
[BALLAST] E
[BALLASTCAT] F
[OTHER] 
[OTHER] Gamma(deg)    Fz(lm)      Ft(lm)     %Lum    %Lamp
[OTHER]   0- 10     35214.87    35214.87    47.73    47.73
[OTHER]  10- 20     17228.15    52443.02    71.08    71.08
[OTHER]  20- 30      6497.51    58940.53    79.89    79.89
[OTHER]  30- 40      4405.21    63345.74    85.86    85.86
[OTHER]  40- 50      3576.53    66922.27    90.71    90.71
[OTHER]  50- 60      2811.00    69733.27    94.52    94.52
[OTHER]  60- 70      1916.62    71649.89    97.12    97.12
[OTHER]  70- 80       966.67    72616.56    98.43    98.43
[OTHER]  80- 90       363.57    72980.13    98.92    98.92
[OTHER]  90-100       180.01    73160.14    99.17    99.17
[OTHER] 100-110       144.61    73304.75    99.36    99.36
[OTHER] 110-120       129.28    73434.03    99.54    99.54
[OTHER] 120-130       100.25    73534.28    99.67    99.67
[OTHER] 130-140        69.67    73603.95    99.77    99.77
[OTHER] 140-150        49.56    73653.50    99.83    99.83
[OTHER] 150-160        55.25    73708.75    99.91    99.91
[OTHER] 160-170        50.40    73759.15    99.98    99.98
[OTHER] 170-180        16.27    73775.42   100.00   100.00
[OTHER] 
TILT=NONE
1 73775 1 181 25 1 2 0.150 0.200 0.000
1.000 1 603.739
0.0    1.0    2.0    3.0    4.0    5.0    6.0    7.0    8.0    9.0    
 10.0   11.0   12.0   13.0   14.0   15.0   16.0   17.0   18.0   19.0   
 20.0   21.0   22.0   23.0   24.0   25.0   26.0   27.0   28.0   29.0   
 30.0   31.0   32.0   33.0   34.0   35.0   36.0   37.0   38.0   39.0   
 40.0   41.0   42.0   43.0   44.0   45.0   46.0   47.0   48.0   49.0   
 50.0   51.0   52.0   53.0   54.0   55.0   56.0   57.0   58.0   59.0   
 60.0   61.0   62.0   63.0   64.0   65.0   66.0   67.0   68.0   69.0   
 70.0   71.0   72.0   73.0   74.0   75.0   76.0   77.0   78.0   79.0   
 80.0   81.0   82.0   83.0   84.0   85.0   86.0   87.0   88.0   89.0   
 90.0   91.0   92.0   93.0   94.0   95.0   96.0   97.0   98.0   99.0   
 100.0  101.0  102.0  103.0  104.0  105.0  106.0  107.0  108.0  109.0  
 110.0  111.0  112.0  113.0  114.0  115.0  116.0  117.0  118.0  119.0  
 120.0  121.0  122.0  123.0  124.0  125.0  126.0  127.0  128.0  129.0  
 130.0  131.0  132.0  133.0  134.0  135.0  136.0  137.0  138.0  139.0  
 140.0  141.0  142.0  143.0  144.0  145.0  146.0  147.0  148.0  149.0  
 150.0  151.0  152.0  153.0  154.0  155.0  156.0  157.0  158.0  159.0  
 160.0  161.0  162.0  163.0  164.0  165.0  166.0  167.0  168.0  169.0  
 170.0  171.0  172.0  173.0  174.0  175.0  176.0  177.0  178.0  179.0  
 180.0  
0.0    15.0   30.0   45.0   60.0   75.0   90.0   105.0  120.0  135.0  
 150.0  165.0  180.0  195.0  210.0  225.0  240.0  255.0  270.0  285.0  
 300.0  315.0  330.0  345.0  360.0  
585122.25 584438.68 580275.97 567486.81 488410.75 403533.77 315688.70 215756.01 146104.03 106527.45 
 67304.97 28082.49 14257.49 716.21   400.61   226.15   51.69    37.04    28.30    22.53    
 19.01    16.72    14.77    13.12    12.13    11.08    10.05    9.71     9.45     10.04    
 10.44    9.85     8.81     7.82     7.44     7.19     7.13     6.75     6.73     6.39     
 6.11     5.95     5.82     5.47     5.25     5.21     5.18     4.99     4.73     4.52     
 4.47     4.39     4.39     4.32     4.29     4.28     4.12     4.02     3.97     3.92     
 3.77     3.69     3.65     3.59     3.50     3.41     3.36     3.32     3.29     3.25     
 3.24     3.21     3.19     3.16     3.13     3.12     3.10     3.11     3.11     3.12     
 3.13     3.13     3.25     3.44     3.55     3.66     3.76     3.81     3.86     3.90     
 3.96     4.02     4.07     4.07     4.13     4.20     4.30     4.43     4.61     4.81     
 5.04     5.30     5.60     5.95     6.31     6.71     7.13     7.58     8.06     8.53     
 8.99     9.42     9.84     10.26    10.70    11.18    11.67    12.21    12.80    13.43    
 14.06    14.73    15.44    16.16    16.92    17.72    18.58    19.47    20.40    21.36    
 22.34    23.37    24.47    25.58    26.70    27.86    29.14    30.53    32.03    33.70    
 35.59    37.72    40.24    43.33    46.99    51.33    56.49    62.84    71.02    81.12    
 93.44    107.98   124.78   143.08   162.85   183.09   203.56   224.50   245.30   266.10   
 284.53   301.00   314.30   323.34   328.02   328.55   325.41   319.25   310.90   301.01   
 290.12   278.35   265.79   252.79   239.61   226.01   211.92   197.40   181.88   165.44   
 148.11   
585122.25 583251.99 578223.73 566189.60 508523.07 417654.93 326599.21 235543.51 144866.37 104619.32 
 60653.83 45711.17 30768.50 15825.84 1014.17  772.02   608.36   390.99   274.05   157.68   
 115.82   89.55    71.81    65.77    51.67    40.67    27.72    21.37    17.74    15.09    
 13.39    11.93    10.15    8.37     7.34     6.69     6.25     6.19     6.49     6.93     
 6.91     6.87     6.77     6.62     6.41     6.25     6.09     5.93     5.72     5.54     
 5.37     5.19     4.99     4.84     4.69     4.55     4.47     4.34     4.19     4.09     
 4.02     3.91     3.83     3.73     3.60     3.49     3.40     3.32     3.24     3.11     
 3.01     2.92     2.83     2.76     2.69     2.63     2.58     2.54     2.53     2.53     
 2.53     2.55     2.59     2.63     2.71     2.77     2.85     2.93     3.04     3.14     
 3.23     3.31     3.41     3.52     3.65     3.79     3.95     4.13     4.34     4.56     
 4.82     5.09     5.39     5.70     6.05     6.42     6.79     7.18     7.62     8.07     
 8.53     9.01     9.50     9.98     10.47    11.01    11.58    12.18    12.78    13.40    
 14.06    14.76    15.50    16.25    17.02    17.82    18.67    19.57    20.51    21.51    
 22.53    23.58    24.67    25.75    26.89    28.09    29.40    30.85    32.40    34.12    
 36.20    38.52    41.19    44.33    48.01    52.45    57.76    64.39    72.54    83.01    
 95.57    111.67   127.80   146.52   166.49   186.86   207.84   228.30   248.84   268.55   
 287.02   303.29   315.89   324.67   328.57   328.45   324.98   318.67   310.31   300.51   
 289.70   278.16   266.09   253.45   240.91   228.31   214.66   200.22   183.89   165.39   
 148.11   
585122.25 581273.34 573918.69 558138.52 520240.59 424467.11 330467.77 237569.72 162506.66 123298.93 
 84515.99 45733.06 28911.86 17542.15 12076.85 6673.95  1271.05  868.03   528.67   385.45   
 288.74   220.59   171.56   128.03   105.29   82.78    71.34    61.34    52.69    43.50    
 38.20    33.66    29.76    26.72    24.03    20.33    17.18    15.56    14.59    13.92    
 13.49    12.88    12.44    11.92    11.22    10.44    9.73     9.10     8.22     7.56     
 6.83     5.93     5.48     5.34     5.23     5.10     4.88     4.64     4.38     4.11     
 3.93     3.81     3.68     3.53     3.38     3.24     3.12     3.00     2.91     2.84     
 2.76     2.71     2.65     2.59     2.54     2.49     2.44     2.40     2.38     2.38     
 2.38     2.42     2.47     2.54     2.60     2.67     2.76     2.86     2.96     3.08     
 3.21     3.35     3.50     3.67     3.85     4.04     4.24     4.44     4.66     4.89     
 5.13     5.38     5.65     5.94     6.25     6.58     6.93     7.31     7.70     8.11     
 8.54     8.99     9.46     9.93     10.44    10.95    11.51    12.06    12.66    13.28    
 13.92    14.58    15.28    15.98    16.70    17.44    18.24    19.09    19.95    20.86    
 21.80    22.80    23.87    25.02    26.26    27.61    29.11    30.77    32.66    34.76    
 37.04    39.63    42.60    46.11    50.19    54.99    60.82    68.12    77.29    88.30    
 101.12   116.02   132.91   151.18   171.06   191.33   211.56   233.02   254.49   273.67   
 290.86   305.22   315.79   322.41   325.13   324.30   320.39   314.16   306.03   296.45   
 286.07   274.99   262.82   250.33   238.15   224.71   210.31   195.41   179.52   162.92   
 148.11   
585122.25 580220.32 571136.17 553434.68 517319.53 459589.33 358652.06 276077.53 193690.23 136410.63 
 99045.48 65477.84 51940.32 39229.78 26519.24 13890.39 10097.28 5722.72  1388.14  1056.84  
 771.86   546.74   378.08   302.07   226.05   150.39   113.91   91.65    77.54    67.25    
 58.98    51.79    46.09    41.40    37.54    34.20    31.27    28.60    26.24    23.88    
 21.03    17.80    15.57    14.20    13.25    12.45    11.70    11.04    10.48    9.86     
 9.15     8.52     7.91     7.43     7.00     6.65     6.35     6.05     5.76     5.50     
 5.22     4.98     4.77     4.58     4.39     4.21     4.02     3.80     3.59     3.39     
 3.20     3.02     2.86     2.71     2.58     2.47     2.38     2.27     2.18     2.16     
 2.16     2.19     2.24     2.30     2.38     2.46     2.56     2.66     2.78     2.91     
 3.05     3.19     3.35     3.53     3.71     3.91     4.11     4.33     4.56     4.80     
 5.08     5.35     5.63     5.93     6.25     6.58     6.94     7.30     7.66     8.05     
 8.46     8.88     9.32     9.73     10.19    10.68    11.17    11.70    12.20    12.72    
 13.26    13.82    14.41    15.01    15.61    16.24    16.90    17.61    18.34    19.12    
 19.96    20.89    21.91    23.00    24.19    25.53    27.03    28.71    30.53    32.63    
 35.04    37.77    40.81    44.41    48.65    53.81    60.05    67.65    76.77    87.98    
 100.74   116.60   132.49   150.58   170.09   190.10   210.89   231.06   250.66   268.71   
 284.52   297.52   307.27   313.82   316.86   316.84   314.01   308.78   301.62   292.92   
 283.44   272.51   261.10   249.03   236.61   223.53   209.93   196.06   181.50   166.93   
 148.11   
585122.25 578442.92 565489.85 540662.20 495281.40 431982.80 357346.18 284399.76 216374.75 157133.62 
 117003.32 91649.80 66462.51 52212.33 40608.48 28090.76 22460.91 18600.45 12163.69 9713.64  
 7312.76  4372.80  3263.84  1395.00  1000.49  622.27   472.90   356.57   257.00   196.15   
 158.89   133.95   115.94   98.01    85.26    73.36    63.53    55.49    48.51    43.05    
 38.30    34.53    31.29    28.36    25.80    23.75    21.69    19.56    17.67    15.43    
 13.09    11.67    10.82    10.15    9.57     9.08     8.69     8.34     8.02     7.74     
 7.48     7.25     7.01     6.79     6.61     6.45     6.29     6.14     5.98     5.81     
 5.60     5.34     5.08     4.76     4.41     4.06     3.71     3.38     3.05     2.66     
 2.46     2.43     2.43     2.49     2.56     2.64     2.74     2.85     2.97     3.10     
 3.25     3.40     3.57     3.75     3.95     4.17     4.40     4.64     4.89     5.17     
 5.44     5.73     6.04     6.37     6.69     7.03     7.37     7.73     8.10     8.48     
 8.88     9.28     9.69     10.12    10.57    11.03    11.50    11.98    12.47    12.97    
 13.46    13.97    14.51    15.05    15.60    16.15    16.73    17.34    17.95    18.61    
 19.31    20.08    20.91    21.83    22.84    23.94    25.29    26.81    28.54    30.53    
 32.79    35.42    38.55    42.36    46.94    52.50    59.28    67.47    77.45    89.00    
 102.18   117.00   133.50   151.16   169.91   188.88   207.76   226.43   243.83   261.21   
 275.01   286.60   295.70   302.15   305.79   306.62   304.89   300.74   294.69   287.45   
 279.81   270.42   259.75   248.66   237.10   224.63   211.84   199.35   186.17   173.11   
 148.11   
585122.25 577853.84 564079.68 537393.76 491958.07 427274.00 354095.55 294001.57 233907.56 173988.03 
 136659.65 109238.39 89031.85 72776.03 59454.85 48411.04 38504.79 29937.85 25359.47 20788.65 
 17235.96 13877.21 10818.32 8871.20  7432.95  6136.39  5027.39  4253.75  3694.91  3183.62  
 2737.27  2291.77  1956.68  1672.78  1415.64  1151.95  927.38   735.27   568.51   435.19   
 341.67   285.03   228.39   171.95   140.17   114.50   93.30    77.15    65.46    55.95    
 48.91    43.16    38.10    34.15    30.81    27.87    25.56    23.64    22.09    20.52    
 19.29    18.12    16.70    15.46    14.11    13.56    13.31    13.07    12.94    12.82    
 12.68    12.51    12.29    12.16    11.96    11.69    11.26    10.45    9.33     7.74     
 5.95     3.06     2.05     2.07     2.12     2.20     2.28     2.36     2.45     2.55     
 2.67     2.80     2.94     3.10     3.27     3.45     3.65     3.84     4.07     4.29     
 4.55     4.80     5.07     5.35     5.63     5.94     6.26     6.59     6.93     7.30     
 7.67     8.07     8.47     8.86     9.27     9.68     10.12    10.59    11.04    11.50    
 11.99    12.49    13.00    13.49    14.00    14.50    15.02    15.54    16.08    16.61    
 17.17    17.77    18.40    19.11    19.92    20.83    21.93    23.19    24.64    26.36    
 28.50    31.01    34.01    37.77    42.30    48.04    54.96    63.40    73.23    84.91    
 97.88    113.33   128.78   145.75   163.42   181.18   199.24   216.20   232.71   247.73   
 261.21   272.93   282.67   290.60   296.07   299.57   301.61   300.62   296.53   291.59   
 285.39   278.38   269.14   259.02   247.94   235.85   223.76   211.27   198.61   185.99   
 148.11   
585122.25 577828.61 564607.43 539084.53 494355.00 431117.26 359029.17 298992.47 238955.80 179140.67 
 140440.96 111975.96 91484.41 75404.54 62249.58 51667.39 43091.85 36227.12 30681.66 26745.73 
 22809.79 18885.65 16065.12 13682.03 11739.08 10332.46 9340.97  8596.24  8030.45  7566.33  
 7154.84  6784.18  6396.61  6047.70  5742.08  5435.39  5138.86  4870.47  4619.42  4372.28  
 4122.86  3880.20  3657.45  3482.39  3309.62  3130.81  2939.05  2751.33  2571.98  2392.84  
 2231.40  2069.53  1906.87  1751.20  1597.72  1455.02  1316.89  1185.80  1059.59  937.40   
 833.06   734.08   637.50   547.27   459.55   379.64   307.26   249.03   190.96   146.99   
 110.20   80.25    58.51    41.52    27.42    15.58    6.99     3.54     2.71     2.48     
 1.95     1.63     1.54     1.46     1.40     1.35     1.29     1.24     1.15     1.04     
 0.96     0.84     0.72     0.72     0.73     0.73     0.75     0.78     0.80     0.83     
 0.87     0.90     0.94     0.98     1.03     1.08     1.12     1.17     1.24     1.29     
 1.35     1.40     1.45     1.52     1.58     1.65     1.71     1.78     1.85     1.93     
 2.00     2.08     2.16     2.24     2.32     2.41     2.50     2.60     2.70     2.80     
 2.92     3.04     3.17     3.33     3.50     3.69     3.92     4.18     4.50     4.87     
 5.34     5.91     6.56     7.41     8.41     9.61     10.95    12.43    14.06    15.89    
 17.88    19.99    22.27    24.71    27.29    29.88    32.64    35.40    38.15    40.89    
 43.60    46.28    48.98    51.62    54.24    56.86    59.45    62.25    65.12    69.25    
 72.76    76.88    82.09    88.68    96.61    105.87   117.31   129.87   144.13   159.26   
 148.11   
585122.25 577376.15 563525.80 537872.22 494373.49 435105.04 366019.83 298403.37 237374.21 186619.55 
 147347.66 118786.24 100469.06 82236.87 68928.62 58400.26 50085.34 43252.59 37477.78 32444.04 
 28050.58 24155.70 20875.45 17882.21 15470.58 13643.06 12254.77 11498.01 10745.92 9993.83  
 9512.07  9116.49  8784.73  8476.92  8212.95  7981.89  7772.51  7558.55  7340.78  7135.06  
 6938.96  6731.08  6531.79  6340.13  6163.20  5981.24  5787.74  5598.90  5434.71  5285.00  
 5137.79  4996.13  4852.15  4703.79  4553.41  4392.70  4233.49  4077.46  3927.02  3776.62  
 3616.69  3462.27  3314.21  3164.23  3008.29  2846.34  2679.98  2519.53  2355.16  2196.71  
 2044.66  1894.25  1744.26  1590.69  1441.45  1304.14  1176.05  1064.14  952.37   850.82   
 761.70   684.43   612.56   551.66   499.77   453.50   415.91   383.39   357.32   329.48   
 302.64   280.46   267.51   256.52   239.12   222.58   208.18   194.35   182.74   171.03   
 160.47   151.41   143.10   135.81   128.70   122.07   115.44   110.41   105.21   99.30    
 94.00    88.76    83.40    78.35    73.37    68.21    63.55    58.99    54.65    50.36    
 46.28    42.21    38.02    33.78    29.45    25.25    21.18    16.88    12.82    8.75     
 6.61     5.05     3.71     2.70     2.39     2.38     2.51     2.69     2.91     3.17     
 3.49     3.90     4.43     5.07     5.93     6.98     8.17     9.50     11.10    12.83    
 14.74    16.77    19.00    21.37    23.81    26.30    28.87    31.39    33.89    36.25    
 38.54    40.76    42.85    44.86    46.81    48.72    50.79    52.95    55.85    58.76    
 61.66    65.21    69.79    75.64    83.00    91.94    103.26   116.85   131.74   148.15   
 148.11   
585122.25 578732.22 567150.65 546392.76 510431.59 459121.20 396587.21 330801.40 276562.94 222324.45 
 168329.24 136960.76 114243.74 96696.15 82550.55 71476.03 62926.20 55688.11 49323.40 43764.14 
 38745.02 34047.78 29814.86 26532.42 23249.99 19978.89 17678.28 15734.11 14172.01 12889.96 
 11897.29 11109.36 10539.77 10131.04 9850.52  9616.49  9391.52  9161.50  8939.55  8730.74  
 8526.72  8326.16  8139.61  7941.13  7739.59  7548.22  7344.58  7143.02  6949.81  6759.54  
 6581.99  6409.29  6243.11  6061.14  5874.24  5679.92  5496.60  5303.68  5103.24  4904.38  
 4704.18  4492.19  4287.39  4087.40  3892.68  3696.65  3502.16  3302.45  3097.05  2879.82  
 2668.53  2457.46  2264.86  2078.73  1898.97  1717.34  1550.57  1397.37  1250.87  1119.67  
 998.01   893.37   802.11   724.92   664.22   612.51   571.16   532.02   501.35   469.26   
 439.12   411.93   388.60   370.41   354.53   339.40   325.58   311.49   299.28   288.14   
 277.16   267.93   259.39   251.58   244.25   237.16   230.10   224.53   219.69   214.99   
 210.55   206.34   202.51   198.57   194.66   191.14   187.30   183.70   179.94   176.11   
 172.36   168.40   164.13   159.89   155.41   150.66   146.01   141.28   136.36   131.36   
 126.30   121.33   116.40   111.02   105.76   100.14   94.09    87.93    82.31    76.41    
 70.28    64.59    58.86    52.99    47.34    43.38    35.43    15.61    11.83    10.43    
 11.56    13.52    15.79    18.26    20.90    23.69    26.54    29.44    32.38    35.30    
 38.13    40.82    43.34    45.78    48.05    50.10    51.91    53.65    55.28    57.01    
 59.04    62.17    65.50    69.74    75.33    83.45    93.66    106.45   121.34   138.22   
 148.11   
585122.25 579028.47 567943.04 549090.05 518937.64 473755.63 416222.49 351642.12 288333.55 229841.26 
 182971.83 148890.06 124256.38 107847.22 91504.22 80473.61 72103.62 64897.87 58450.63 52108.97 
 46523.60 41240.32 36561.92 32140.72 28324.20 25079.84 22367.96 19974.06 17866.91 16081.09 
 14534.36 13288.86 12329.44 11804.85 11284.04 10763.22 10405.30 10068.25 9754.19  9488.85  
 9251.11  9028.39  8815.77  8608.44  8408.73  8206.69  8016.61  7835.81  7649.90  7446.76  
 7248.84  7059.18  6866.81  6684.38  6498.46  6301.73  6084.55  5863.61  5631.45  5401.61  
 5175.77  4953.37  4724.81  4473.86  4237.06  4014.74  3793.76  3565.20  3330.99  3095.54  
 2868.06  2657.82  2443.91  2230.97  2028.41  1835.92  1643.92  1468.29  1308.75  1185.68  
 1061.04  936.37   840.90   763.23   700.21   648.66   597.57   555.28   522.56   493.15   
 462.48   431.93   407.52   386.14   369.12   357.32   348.58   341.29   333.49   325.69   
 318.15   311.08   305.31   300.02   295.25   291.43   288.22   285.58   283.06   280.33   
 277.69   275.09   273.30   271.61   269.88   268.28   266.59   264.69   262.78   261.00   
 259.05   256.97   254.08   250.27   246.24   242.13   237.62   232.64   227.50   222.48   
 217.58   212.34   206.88   201.16   195.23   189.38   183.40   177.03   170.62   163.90   
 156.73   150.31   143.85   137.57   131.07   123.03   114.98   106.73   100.04   94.13    
 86.56    79.69    72.18    68.93    66.01    49.87    32.19    32.13    33.85    35.96    
 37.90    40.02    43.02    46.20    49.37    52.38    54.99    57.12    58.93    60.40    
 61.73    63.05    64.78    67.37    71.34    77.60    86.27    97.89    112.08   128.86   
 148.11   
