IESNA:LM-63-2002
[TEST] 1
[TESTLAB] AOK
[TESTDATE] 2022-05-27
[ISSUEDATE] 2022-05-27 08:47:15
[NEARFIELD] 
[LAMPPOSITION] 0,0
[OTHER] EVERFINE GO-2000A_V1 SYSTEM
[MANUFAC] AOK
[LUMCAT] A
[LUMINAIRE] AOK-600WiSF-NV-S5-00-5070-15D-
[LAMPCAT] B
[LAMP] 5050
[BALLAST] E
[BALLASTCAT] F
[OTHER] 
[OTHER] Gamma(deg)    Fz(lm)      Ft(lm)     %Lum    %Lamp
[OTHER]   0- 10     33431.01    33431.01    47.78    47.78
[OTHER]  10- 20     16371.69    49802.70    71.18    71.18
[OTHER]  20- 30      6143.68    55946.38    79.96    79.96
[OTHER]  30- 40      4171.00    60117.38    85.92    85.92
[OTHER]  40- 50      3381.54    63498.91    90.76    90.76
[OTHER]  50- 60      2655.75    66154.66    94.55    94.55
[OTHER]  60- 70      1807.71    67962.37    97.13    97.13
[OTHER]  70- 80       910.09    68872.46    98.44    98.44
[OTHER]  80- 90       342.97    69215.43    98.93    98.93
[OTHER]  90-100       170.08    69385.51    99.17    99.17
[OTHER] 100-110       136.96    69522.48    99.36    99.36
[OTHER] 110-120       122.37    69644.85    99.54    99.54
[OTHER] 120-130        94.79    69739.65    99.67    99.67
[OTHER] 130-140        65.81    69805.46    99.77    99.77
[OTHER] 140-150        46.72    69852.18    99.84    99.84
[OTHER] 150-160        52.11    69904.29    99.91    99.91
[OTHER] 160-170        47.72    69952.01    99.98    99.98
[OTHER] 170-180        15.36    69967.37   100.00   100.00
[OTHER] 
TILT=NONE
1 69967 1 181 25 1 2 0.150 0.200 0.000
1.000 1 567.452
0.0    1.0    2.0    3.0    4.0    5.0    6.0    7.0    8.0    9.0    
 10.0   11.0   12.0   13.0   14.0   15.0   16.0   17.0   18.0   19.0   
 20.0   21.0   22.0   23.0   24.0   25.0   26.0   27.0   28.0   29.0   
 30.0   31.0   32.0   33.0   34.0   35.0   36.0   37.0   38.0   39.0   
 40.0   41.0   42.0   43.0   44.0   45.0   46.0   47.0   48.0   49.0   
 50.0   51.0   52.0   53.0   54.0   55.0   56.0   57.0   58.0   59.0   
 60.0   61.0   62.0   63.0   64.0   65.0   66.0   67.0   68.0   69.0   
 70.0   71.0   72.0   73.0   74.0   75.0   76.0   77.0   78.0   79.0   
 80.0   81.0   82.0   83.0   84.0   85.0   86.0   87.0   88.0   89.0   
 90.0   91.0   92.0   93.0   94.0   95.0   96.0   97.0   98.0   99.0   
 100.0  101.0  102.0  103.0  104.0  105.0  106.0  107.0  108.0  109.0  
 110.0  111.0  112.0  113.0  114.0  115.0  116.0  117.0  118.0  119.0  
 120.0  121.0  122.0  123.0  124.0  125.0  126.0  127.0  128.0  129.0  
 130.0  131.0  132.0  133.0  134.0  135.0  136.0  137.0  138.0  139.0  
 140.0  141.0  142.0  143.0  144.0  145.0  146.0  147.0  148.0  149.0  
 150.0  151.0  152.0  153.0  154.0  155.0  156.0  157.0  158.0  159.0  
 160.0  161.0  162.0  163.0  164.0  165.0  166.0  167.0  168.0  169.0  
 170.0  171.0  172.0  173.0  174.0  175.0  176.0  177.0  178.0  179.0  
 180.0  
0.0    15.0   30.0   45.0   60.0   75.0   90.0   105.0  120.0  135.0  
 150.0  165.0  180.0  195.0  210.0  225.0  240.0  255.0  270.0  285.0  
 300.0  315.0  330.0  345.0  360.0  
555361.19 554760.79 550851.37 540084.91 467365.06 387318.31 303169.69 207673.77 140659.00 102533.19 
 64747.60 26962.00 13681.37 674.49   375.60   212.34   49.07    35.03    26.87    21.40    
 18.15    15.84    14.00    12.49    11.52    10.47    9.45     9.12     8.87     9.43     
 9.84     9.35     8.37     7.42     7.05     6.82     6.77     6.47     6.42     6.11     
 5.85     5.69     5.56     5.23     5.01     4.95     4.91     4.74     4.51     4.29     
 4.22     4.15     4.18     4.08     4.05     4.03     3.88     3.79     3.74     3.68     
 3.54     3.48     3.45     3.39     3.30     3.21     3.16     3.13     3.10     3.07     
 3.05     3.03     3.01     2.98     2.95     2.93     2.91     2.91     2.91     2.91     
 2.91     2.94     3.05     3.22     3.34     3.43     3.53     3.59     3.63     3.67     
 3.72     3.79     3.80     3.82     3.87     3.95     4.03     4.16     4.31     4.49     
 4.71     4.96     5.24     5.55     5.90     6.26     6.65     7.09     7.52     7.96     
 8.38     8.79     9.19     9.57     9.99     10.44    10.91    11.40    11.94    12.51    
 13.12    13.73    14.40    15.08    15.80    16.53    17.35    18.19    19.07    19.96    
 20.89    21.87    22.89    23.94    25.00    26.09    27.27    28.57    29.99    31.58    
 33.29    35.31    37.68    40.53    43.94    47.96    52.78    58.87    66.48    75.81    
 87.47    101.12   117.02   134.26   152.74   171.85   191.52   211.36   231.12   250.88   
 268.16   284.08   296.64   305.47   310.04   310.70   307.87   302.17   294.20   285.00   
 274.71   263.55   251.65   239.34   226.79   213.71   200.20   186.21   171.62   155.43   
 137.67   
555361.19 553622.34 549099.65 538037.36 485777.81 399639.58 313199.80 226760.02 140674.59 101782.94 
 58200.05 43862.60 29525.16 15187.71 975.99   747.35   595.02   375.73   263.92   152.64   
 112.18   84.47    68.57    62.93    49.97    38.36    25.93    20.16    16.51    14.09    
 12.52    11.22    9.51     7.85     6.86     6.26     5.84     5.79     6.08     6.51     
 6.52     6.46     6.36     6.23     6.04     5.89     5.74     5.60     5.41     5.25     
 5.07     4.89     4.71     4.58     4.43     4.30     4.21     4.10     3.95     3.86     
 3.79     3.69     3.61     3.51     3.41     3.29     3.22     3.14     3.05     2.94     
 2.84     2.75     2.67     2.60     2.53     2.48     2.42     2.38     2.38     2.38     
 2.39     2.40     2.44     2.48     2.54     2.61     2.68     2.76     2.85     2.95     
 3.03     3.11     3.21     3.32     3.44     3.55     3.71     3.87     4.06     4.27     
 4.51     4.77     5.04     5.35     5.66     5.99     6.34     6.72     7.12     7.53     
 7.96     8.42     8.86     9.30     9.77     10.28    10.80    11.37    11.94    12.52    
 13.13    13.78    14.47    15.19    15.90    16.66    17.46    18.30    19.18    20.09    
 21.05    22.05    23.08    24.11    25.19    26.32    27.55    28.90    30.36    32.01    
 33.91    36.09    38.56    41.50    44.96    49.10    54.10    60.26    67.87    77.69    
 89.39    103.37   120.31   137.26   156.09   175.37   195.21   214.66   234.19   252.80   
 270.24   285.96   298.06   306.55   310.47   310.49   307.38   301.49   293.60   284.41   
 274.14   263.21   251.76   239.97   227.87   215.89   202.48   187.36   170.21   152.49   
 137.67   
555361.19 551692.16 544773.69 529872.44 495546.18 405800.05 315960.97 227469.76 156011.49 118304.85 
 80998.07 43691.29 28158.30 16838.30 11587.65 6401.32  1214.99  829.56   505.26   372.95   
 275.63   208.47   161.69   121.74   100.01   78.47    67.29    57.98    49.97    41.12    
 36.07    31.81    28.07    25.27    22.66    19.15    16.17    14.61    13.71    13.13    
 12.75    12.14    11.72    11.24    10.57    9.83     9.16     8.59     7.76     7.13     
 6.45     5.60     5.16     5.02     4.93     4.82     4.61     4.39     4.13     3.89     
 3.71     3.58     3.48     3.34     3.19     3.06     2.94     2.84     2.75     2.67     
 2.61     2.55     2.50     2.45     2.40     2.35     2.30     2.27     2.25     2.24     
 2.24     2.28     2.33     2.38     2.44     2.51     2.60     2.69     2.79     2.89     
 3.01     3.16     3.30     3.46     3.62     3.80     3.98     4.18     4.38     4.59     
 4.82     5.05     5.30     5.57     5.85     6.17     6.49     6.84     7.21     7.59     
 7.98     8.41     8.85     9.30     9.77     10.27    10.77    11.29    11.84    12.42    
 13.02    13.64    14.29    14.96    15.63    16.34    17.10    17.89    18.69    19.55    
 20.45    21.42    22.43    23.49    24.65    25.90    27.33    28.91    30.66    32.64    
 34.81    37.22    40.00    43.34    47.19    51.71    57.14    63.90    72.58    83.05    
 95.19    108.98   125.00   142.32   160.62   179.73   199.45   218.96   238.70   258.44   
 274.64   288.40   298.52   304.93   307.63   306.98   303.35   297.41   289.71   280.79   
 270.74   260.15   248.57   236.75   224.89   212.14   197.51   181.75   165.67   150.11   
 137.67   
555361.19 550928.01 542223.94 525480.46 491555.48 437250.99 343493.96 264466.21 185612.42 130108.14 
 95168.07 62873.47 49605.89 37535.93 25465.97 13471.37 9629.76  5458.79  1325.91  1007.80  
 739.93   522.04   361.35   277.38   193.69   143.44   109.08   86.96    73.29    63.56    
 55.83    49.04    43.58    39.08    35.42    32.26    29.51    26.97    24.80    22.53    
 19.83    16.79    14.71    13.39    12.49    11.73    11.04    10.42    9.89     9.31     
 8.64     8.04     7.48     7.00     6.61     6.27     5.99     5.70     5.45     5.18     
 4.93     4.70     4.50     4.31     4.13     3.96     3.79     3.57     3.39     3.20     
 3.01     2.84     2.69     2.55     2.43     2.34     2.24     2.14     2.05     2.02     
 2.03     2.06     2.10     2.16     2.23     2.31     2.40     2.51     2.62     2.73     
 2.87     3.01     3.16     3.32     3.49     3.67     3.86     4.06     4.28     4.51     
 4.75     5.00     5.28     5.56     5.86     6.17     6.50     6.83     7.19     7.54     
 7.91     8.30     8.72     9.14     9.55     9.98     10.45    10.92    11.41    11.91    
 12.43    12.96    13.52    14.07    14.64    15.22    15.85    16.51    17.21    17.94    
 18.74    19.60    20.55    21.59    22.72    23.97    25.36    26.97    28.72    30.64    
 32.92    35.46    38.35    41.71    45.73    50.57    56.43    63.58    72.16    82.69    
 94.73    108.73   125.25   141.80   160.15   179.12   198.91   217.87   236.60   253.68   
 268.57   281.13   290.35   296.77   299.66   299.73   297.05   292.03   285.30   277.10   
 267.93   257.55   246.56   235.26   223.22   210.30   196.57   182.22   168.01   154.85   
 137.67   
555361.19 549045.36 536738.35 512917.58 469795.96 408766.04 339127.92 270253.04 205779.64 148916.71 
 120162.23 91734.72 63307.21 49441.68 38751.55 26672.16 21281.61 17639.55 11612.49 9252.33  
 6937.39  4148.94  3107.17  1321.08  947.50   589.52   449.26   337.55   244.22   185.54   
 150.37   126.87   109.71   92.61    80.48    69.19    59.95    52.31    45.77    40.59    
 36.14    32.54    29.55    26.77    24.36    22.37    20.45    18.46    16.71    14.49    
 12.30    10.99    10.21    9.58     9.02     8.57     8.21     7.87     7.58     7.31     
 7.05     6.84     6.61     6.40     6.23     6.08     5.93     5.79     5.65     5.49     
 5.29     5.04     4.79     4.49     4.16     3.84     3.50     3.19     2.89     2.53     
 2.32     2.30     2.30     2.35     2.42     2.50     2.60     2.69     2.80     2.92     
 3.06     3.21     3.37     3.54     3.73     3.93     4.14     4.37     4.61     4.86     
 5.13     5.40     5.68     5.98     6.30     6.60     6.93     7.28     7.62     7.97     
 8.34     8.73     9.12     9.52     9.93     10.36    10.80    11.26    11.72    12.20    
 12.69    13.17    13.67    14.16    14.67    15.19    15.74    16.33    16.92    17.54    
 18.19    18.91    19.70    20.58    21.55    22.59    23.82    25.27    26.88    28.77    
 30.91    33.37    36.33    39.91    44.21    49.52    55.94    63.67    72.98    83.93    
 96.58    110.51   126.05   142.87   160.44   178.37   196.50   213.93   230.59   245.43   
 260.25   271.29   279.94   286.08   289.52   290.21   288.62   284.68   278.93   271.79   
 264.28   255.47   245.27   234.78   223.48   211.48   199.08   186.60   174.37   162.57   
 137.67   
555361.19 548587.45 535521.99 510517.58 467540.58 406054.24 336487.30 279381.50 222275.68 165336.40 
 129960.44 103904.96 84716.01 69216.97 56410.75 46042.76 36746.82 31063.70 25380.58 19714.64 
 16358.42 13224.30 10264.39 8403.12  7030.25  5812.25  4754.79  4034.38  3500.32  3057.30  
 2614.27  2172.14  1848.90  1583.00  1337.16  1089.07  875.30   694.30   534.89   410.23   
 321.44   268.21   214.98   161.94   131.83   107.81   87.71    72.61    61.59    52.64    
 46.00    40.60    35.82    32.15    28.96    26.21    24.03    22.26    20.78    19.30    
 18.15    17.04    15.68    14.52    13.26    12.75    12.51    12.28    12.16    12.05    
 11.92    11.76    11.55    11.42    11.23    10.98    10.56    9.83     8.77     7.27     
 5.61     2.91     1.93     1.95     2.01     2.08     2.15     2.23     2.31     2.41     
 2.52     2.64     2.78     2.93     3.09     3.27     3.44     3.63     3.84     4.06     
 4.29     4.53     4.79     5.06     5.33     5.61     5.91     6.23     6.55     6.89     
 7.24     7.61     7.99     8.36     8.74     9.14     9.56     9.98     10.41    10.84    
 11.30    11.76    12.24    12.72    13.19    13.68    14.17    14.67    15.17    15.68    
 16.21    16.77    17.39    18.04    18.80    19.65    20.71    21.88    23.24    24.88    
 26.87    29.24    32.08    35.57    39.91    45.27    51.81    59.75    69.03    80.07    
 92.32    106.19   121.87   137.57   154.32   171.12   188.17   204.36   220.10   234.44   
 247.03   258.23   267.51   275.03   280.38   283.72   285.58   285.02   280.88   276.15   
 270.13   263.61   254.92   245.22   234.91   223.26   211.56   198.90   185.90   173.33   
 137.67   
555361.19 548519.78 536029.60 512207.57 469935.34 410647.73 342288.35 285429.74 228571.12 171919.68 
 135018.71 108082.01 88254.20 72942.67 60142.14 49863.31 41678.37 35060.77 29776.29 25653.22 
 21539.16 18289.41 15519.20 13225.31 11369.77 9984.96  9003.23  8278.29  7728.06  7269.10  
 6866.24  6499.50  6135.01  5795.82  5502.97  5209.86  4930.13  4667.07  4429.19  4193.64  
 3953.37  3718.34  3505.13  3337.93  3172.64  2999.63  2815.14  2639.37  2463.67  2293.78  
 2133.08  1974.69  1822.80  1675.55  1531.99  1391.56  1258.56  1132.80  1015.58  900.49   
 801.96   704.33   610.59   525.58   444.83   368.66   306.86   245.07   183.51   141.89   
 106.28   77.41    55.52    39.44    26.18    14.70    6.36     3.14     2.49     2.25     
 1.74     1.51     1.43     1.36     1.30     1.25     1.20     1.15     1.09     0.97     
 0.90     0.77     0.67     0.67     0.68     0.69     0.71     0.73     0.76     0.78     
 0.81     0.84     0.88     0.92     0.96     1.01     1.05     1.10     1.16     1.20     
 1.26     1.31     1.37     1.42     1.47     1.52     1.59     1.65     1.72     1.79     
 1.86     1.94     2.02     2.09     2.17     2.24     2.33     2.42     2.51     2.61     
 2.72     2.83     2.97     3.11     3.28     3.47     3.68     3.93     4.23     4.60     
 5.04     5.61     6.23     7.03     7.98     9.14     10.42    11.83    13.40    15.12    
 17.04    19.06    21.24    23.55    26.00    28.50    31.14    33.77    36.42    39.06    
 41.69    44.27    46.87    49.42    51.98    54.52    57.07    59.75    62.52    66.37    
 69.77    73.67    78.50    84.47    91.64    100.02   110.29   121.73   134.62   148.32   
 137.67   
555361.19 548095.66 534509.91 509756.02 468650.54 412336.44 346716.75 282428.14 225342.72 177847.16 
 140556.13 115135.38 96961.77 78847.98 66056.33 55868.87 47850.63 41341.40 35920.34 31070.16 
 26841.15 23060.09 19899.18 17099.21 14808.08 13070.56 11681.38 10878.90 10080.78 9538.66  
 9084.26  8698.31  8365.02  8058.62  7806.93  7585.34  7383.23  7173.66  6963.40  6767.76  
 6581.87  6387.27  6193.78  6010.72  5839.76  5662.10  5481.57  5305.43  5148.96  5005.08  
 4860.88  4727.48  4588.19  4444.04  4299.04  4149.63  4000.19  3855.95  3710.55  3560.73  
 3410.88  3267.04  3125.65  2981.08  2828.07  2674.99  2516.71  2367.18  2216.13  2065.87  
 1920.43  1779.83  1637.25  1492.67  1354.07  1226.73  1111.91  997.20   894.94   800.21   
 717.18   644.82   577.08   519.76   470.88   427.08   391.26   360.30   335.67   309.68   
 284.41   263.72   251.86   241.54   225.19   209.45   195.90   182.81   171.91   160.78   
 151.03   142.41   134.58   127.77   120.97   114.18   108.38   103.64   98.60    93.02    
 87.90    82.97    78.04    73.15    68.33    63.47    59.00    54.76    50.58    46.40    
 42.56    38.77    34.80    30.69    26.42    22.49    18.69    14.88    11.39    7.65     
 5.77     4.28     3.05     2.30     2.17     2.21     2.35     2.52     2.71     2.96     
 3.27     3.66     4.16     4.77     5.58     6.58     7.72     9.00     10.49    12.16    
 13.98    15.92    17.96    20.21    22.53    24.87    27.33    29.70    32.06    34.34    
 36.51    38.63    40.65    42.62    44.51    46.42    48.46    50.59    52.88    55.94    
 58.85    62.20    66.42    71.83    78.66    86.81    97.17    109.54   122.87   137.63   
 137.67   
555361.19 549485.68 538385.05 518222.18 484328.25 435031.43 375345.04 312714.90 256779.70 201000.87 
 160170.68 130533.19 108973.08 92374.19 78921.74 68296.64 60133.47 53192.27 47101.85 41743.09 
 36928.49 32410.84 28400.50 25029.45 21666.50 19013.59 16824.56 14998.60 13477.75 12253.89 
 11312.73 10565.62 10015.53 9622.88  9349.30  9119.34  8898.95  8677.41  8461.28  8262.74  
 8067.41  7874.74  7695.78  7501.64  7308.83  7127.46  6933.37  6744.11  6558.91  6379.42  
 6209.97  6046.97  5888.96  5715.83  5538.15  5353.40  5178.13  4994.40  4804.29  4613.73  
 4419.10  4218.18  4024.13  3838.09  3654.53  3470.06  3284.74  3094.17  2898.71  2693.55  
 2488.59  2299.98  2117.41  1941.77  1773.96  1607.27  1452.05  1310.43  1172.85  1051.54  
 939.91   840.68   754.72   683.35   625.45   576.41   536.45   499.98   470.94   441.10   
 412.59   387.37   365.36   348.74   333.89   319.95   306.78   293.72   282.38   271.90   
 261.49   252.94   244.97   236.99   229.04   223.15   217.13   212.02   207.45   203.05   
 198.83   194.84   191.13   187.52   183.84   180.49   176.79   173.42   169.84   166.21   
 162.65   158.90   154.89   150.76   146.54   142.00   137.54   133.02   128.28   123.49   
 118.71   113.99   109.25   104.17   99.24    93.82    88.07    82.31    76.99    71.32    
 65.39    60.07    54.88    49.34    44.11    40.23    29.16    13.75    10.79    9.69     
 10.94    12.85    15.00    17.33    19.82    22.41    25.16    27.88    30.68    33.44    
 36.12    38.61    41.02    43.37    45.56    47.52    49.29    50.98    52.58    54.29    
 56.26    58.75    62.46    66.48    71.62    79.12    88.72    100.60   114.27   129.34   
 137.67   
555361.19 549601.75 538634.63 520501.54 491030.27 447653.75 392800.96 332067.84 271911.57 216464.94 
 172685.06 140951.33 118062.50 102239.73 86473.75 76295.35 68384.88 61554.68 55331.12 49168.60 
 43871.56 38843.18 34504.69 30361.87 26770.19 23685.20 21146.09 18874.49 16906.50 15198.09 
 13776.46 12582.64 11917.55 11257.20 10596.84 10205.92 9865.31  9534.32  9235.49  8980.50  
 8755.15  8542.49  8338.77  8138.32  7948.32  7756.81  7574.11  7400.29  7224.14  7030.72  
 6840.91  6657.00  6475.16  6299.33  6121.17  5930.56  5721.82  5508.91  5296.37  5075.42  
 4857.61  4639.61  4421.42  4192.82  3974.93  3760.75  3549.40  3332.87  3116.29  2893.31  
 2680.69  2480.18  2279.91  2079.50  1893.09  1713.63  1533.82  1371.24  1224.41  1094.58  
 986.67   878.93   790.77   716.83   657.56   608.35   560.61   521.38   490.77   463.25   
 434.29   405.96   383.04   363.48   347.70   336.95   328.96   322.16   314.82   307.42   
 300.50   294.10   288.57   283.61   279.16   275.68   272.72   270.11   267.76   265.24   
 262.67   260.28   258.66   257.14   255.44   253.87   252.22   250.23   248.53   246.96   
 245.09   243.27   240.36   236.67   232.89   228.89   224.75   220.06   215.07   210.29   
 205.63   200.54   195.63   190.11   184.45   178.80   173.23   167.01   160.97   154.62   
 147.72   141.67   135.58   129.53   123.02   116.50   108.01   100.32   93.87    87.95    
 81.20    74.07    67.87    64.59    61.74    42.08    29.81    30.20    31.86    33.80    
 35.69    37.96    40.89    43.94    46.95    49.85    52.33    54.33    56.06    57.43    
 58.70    59.93    61.58    64.05    67.81    73.63    82.21    93.15    106.12   121.13   
 137.67   
