IESNA:LM-63-2002
[TEST] 1
[TESTLAB] AOK
[TESTDATE] 2022-05-30
[ISSUEDATE] 2022-05-31 09:03:59
[NEARFIELD] 
[LAMPPOSITION] 0,0
[OTHER] EVERFINE GO-2000A_V1 SYSTEM
[MANUFAC] AOK
[LUMCAT] A
[LUMINAIRE] AOK-800WiSF-HV-S35-00-5070-15D-P
[LAMPCAT] B
[LAMP] 5050
[BALLAST] E
[BALLASTCAT] F
[OTHER] 
[OTHER] Gamma(deg)    Fz(lm)      Ft(lm)     %Lum    %Lamp
[OTHER]   0- 10     48462.85    48462.85    46.14    46.14
[OTHER]  10- 20     27952.81    76415.66    72.76    72.76
[OTHER]  20- 30     10102.10    86517.76    82.38    82.38
[OTHER]  30- 40      5329.58    91847.34    87.45    87.45
[OTHER]  40- 50      4354.87    96202.21    91.60    91.60
[OTHER]  50- 60      3556.86    99759.07    94.99    94.99
[OTHER]  60- 70      2541.96   102301.04    97.41    97.41
[OTHER]  70- 80      1354.70   103655.74    98.70    98.70
[OTHER]  80- 90       547.67   104203.41    99.22    99.22
[OTHER]  90-100       242.87   104446.28    99.45    99.45
[OTHER] 100-110       145.72   104592.00    99.59    99.59
[OTHER] 110-120       109.42   104701.42    99.69    99.69
[OTHER] 120-130        81.96   104783.38    99.77    99.77
[OTHER] 130-140        55.59   104838.97    99.82    99.82
[OTHER] 140-150        39.45   104878.42    99.86    99.86
[OTHER] 150-160        55.35   104933.77    99.91    99.91
[OTHER] 160-170        66.63   105000.40    99.98    99.98
[OTHER] 170-180        22.77   105023.17   100.00   100.00
[OTHER] 
TILT=NONE
1 1.0502e+005 1 181 25 1 2 0.150 0.200 0.000
1.000 1 797.886
0.0    1.0    2.0    3.0    4.0    5.0    6.0    7.0    8.0    9.0    
 10.0   11.0   12.0   13.0   14.0   15.0   16.0   17.0   18.0   19.0   
 20.0   21.0   22.0   23.0   24.0   25.0   26.0   27.0   28.0   29.0   
 30.0   31.0   32.0   33.0   34.0   35.0   36.0   37.0   38.0   39.0   
 40.0   41.0   42.0   43.0   44.0   45.0   46.0   47.0   48.0   49.0   
 50.0   51.0   52.0   53.0   54.0   55.0   56.0   57.0   58.0   59.0   
 60.0   61.0   62.0   63.0   64.0   65.0   66.0   67.0   68.0   69.0   
 70.0   71.0   72.0   73.0   74.0   75.0   76.0   77.0   78.0   79.0   
 80.0   81.0   82.0   83.0   84.0   85.0   86.0   87.0   88.0   89.0   
 90.0   91.0   92.0   93.0   94.0   95.0   96.0   97.0   98.0   99.0   
 100.0  101.0  102.0  103.0  104.0  105.0  106.0  107.0  108.0  109.0  
 110.0  111.0  112.0  113.0  114.0  115.0  116.0  117.0  118.0  119.0  
 120.0  121.0  122.0  123.0  124.0  125.0  126.0  127.0  128.0  129.0  
 130.0  131.0  132.0  133.0  134.0  135.0  136.0  137.0  138.0  139.0  
 140.0  141.0  142.0  143.0  144.0  145.0  146.0  147.0  148.0  149.0  
 150.0  151.0  152.0  153.0  154.0  155.0  156.0  157.0  158.0  159.0  
 160.0  161.0  162.0  163.0  164.0  165.0  166.0  167.0  168.0  169.0  
 170.0  171.0  172.0  173.0  174.0  175.0  176.0  177.0  178.0  179.0  
 180.0  
0.0    15.0   30.0   45.0   60.0   75.0   90.0   105.0  120.0  135.0  
 150.0  165.0  180.0  195.0  210.0  225.0  240.0  255.0  270.0  285.0  
 300.0  315.0  330.0  345.0  360.0  
759177.00 763432.29 763555.98 762338.96 757217.69 699739.93 639066.56 577222.08 493082.81 411850.57 
 314172.94 224193.31 141489.32 114315.91 87748.08 61180.26 49436.77 40276.78 27284.11 20710.35 
 15532.96 11602.35 7686.19  3770.02  1737.93  1161.01  599.49   37.96    23.74    19.27    
 17.67    16.14    14.73    13.44    12.02    10.50    9.23     8.17     7.47     7.19     
 6.99     6.96     6.81     6.49     6.24     6.15     6.08     5.86     5.85     5.73     
 5.24     4.84     4.54     4.24     4.16     4.04     3.98     3.96     3.93     3.90     
 3.87     3.85     3.83     3.81     3.81     3.81     3.81     3.81     3.81     3.81     
 3.81     3.81     3.83     3.85     3.84     3.84     3.85     3.82     3.81     3.80     
 3.79     3.79     3.79     3.85     3.90     3.99     4.09     4.21     4.33     4.44     
 4.59     4.75     4.92     5.13     5.33     5.53     5.76     5.99     6.23     6.48     
 6.72     6.96     7.23     7.51     7.83     8.16     8.50     8.86     9.23     9.61     
 10.01    10.43    10.87    11.33    11.80    12.28    12.78    13.30    13.86    14.44    
 15.04    15.66    16.33    17.00    17.67    18.37    19.12    19.90    20.73    21.61    
 22.56    23.59    24.77    26.08    27.54    29.14    31.00    33.09    35.51    38.25    
 41.28    44.63    48.41    52.77    57.63    63.07    69.04    75.76    83.76    93.25    
 104.44   117.48   132.79   150.30   169.85   191.16   214.04   238.85   263.68   287.68   
 310.81   333.16   354.08   373.24   389.26   400.87   407.90   409.99   407.53   401.04   
 391.42   379.36   366.46   352.31   338.11   322.41   305.45   286.89   266.61   245.01   
 224.04   
759177.00 764326.83 765699.82 764513.00 759714.47 731445.95 660830.82 600146.08 521932.87 430358.74 
 337265.72 257039.96 176917.43 109289.96 80784.40 64046.73 51600.83 42268.63 35012.71 27497.22 
 19999.68 14838.45 10005.60 6780.57  4619.88  2554.11  505.51   327.22   150.32   116.32   
 86.24    63.74    59.16    56.86    33.34    24.64    20.20    17.77    16.44    15.81    
 15.24    14.19    13.19    11.94    10.95    9.94     9.26     8.58     8.11     7.76     
 7.41     7.00     6.45     5.70     5.18     4.86     4.67     4.78     4.93     4.96     
 4.92     4.80     4.71     4.64     4.54     4.45     4.41     4.39     4.32     4.24     
 4.14     4.05     3.95     3.87     3.79     3.70     3.62     3.54     3.48     3.42     
 3.39     3.39     3.40     3.43     3.50     3.59     3.68     3.79     3.89     4.02     
 4.16     4.32     4.49     4.67     4.88     5.10     5.33     5.56     5.81     6.07     
 6.33     6.62     6.92     7.23     7.54     7.86     8.20     8.55     8.93     9.31     
 9.68     10.07    10.49    10.95    11.40    11.89    12.38    12.89    13.40    13.93    
 14.50    15.11    15.74    16.38    17.04    17.73    18.45    19.22    20.03    20.88    
 21.84    22.87    24.03    25.30    26.71    28.34    30.17    32.29    34.63    37.28    
 40.32    43.70    47.46    51.64    56.31    61.62    67.58    74.35    82.16    91.40    
 102.28   116.27   130.30   147.66   166.92   188.07   210.89   234.20   258.64   282.89   
 306.66   329.65   351.29   371.42   387.95   400.53   408.32   411.19   409.68   404.14   
 395.42   384.24   371.75   358.18   343.82   328.15   310.97   292.53   272.18   251.38   
 224.04   
759177.00 763700.83 764736.18 761823.44 755510.77 741770.78 687708.26 604626.64 517759.59 423867.88 
 324368.48 247342.24 175666.45 124503.38 89245.19 68857.46 48623.00 40585.14 34617.41 29674.58 
 25930.50 21723.56 15416.82 11310.93 8676.80  6058.57  3749.43  2339.61  1203.50  760.26   
 325.67   195.87   141.47   119.78   98.47    77.15    64.17    55.69    43.84    34.69    
 29.50    25.22    22.12    20.02    18.45    17.38    16.45    15.49    14.60    13.80    
 13.25    12.76    12.31    11.74    10.96    9.86     8.78     8.00     7.36     7.00     
 6.80     6.57     6.35     6.18     6.03     5.89     5.75     5.62     5.51     5.39     
 5.25     5.08     4.90     4.72     4.54     4.36     4.16     3.98     3.79     3.64     
 3.50     3.40     3.34     3.34     3.40     3.49     3.60     3.73     3.88     4.02     
 4.19     4.38     4.57     4.78     5.01     5.23     5.48     5.75     6.02     6.29     
 6.57     6.88     7.20     7.51     7.85     8.20     8.55     8.92     9.29     9.68     
 10.10    10.52    10.95    11.40    11.87    12.33    12.81    13.30    13.79    14.31    
 14.85    15.42    16.00    16.63    17.27    17.93    18.65    19.45    20.31    21.24    
 22.22    23.30    24.49    25.82    27.35    29.02    30.91    32.97    35.25    37.88    
 40.79    44.01    47.62    51.70    56.31    61.57    67.48    74.43    82.64    92.28    
 103.55   116.65   131.92   149.39   169.01   190.00   212.67   237.62   262.60   287.29   
 311.37   334.76   356.44   375.25   390.79   401.86   408.91   411.53   410.14   404.62   
 396.20   385.39   373.55   360.11   345.41   329.27   311.44   291.61   270.04   247.37   
 224.04   
759177.00 763068.23 763431.69 759572.48 749180.81 726917.18 685868.24 624237.36 521435.09 421829.41 
 325222.15 251059.14 177132.40 131118.66 96692.13 72699.57 56562.41 46224.89 34066.45 28709.58 
 25211.85 21718.19 18741.77 16083.14 13357.80 11089.94 8181.61  6442.46  4883.92  3777.69  
 3066.23  2354.77  1644.68  1108.99  603.86   454.57   305.27   156.97   117.67   93.22    
 79.19    66.66    57.19    49.58    43.49    38.03    34.05    29.82    27.03    25.01    
 22.67    21.12    20.07    19.59    18.80    17.74    16.79    15.95    15.35    14.84    
 14.04    12.85    10.93    8.83     8.08     7.73     7.44     7.18     6.99     6.81     
 6.61     6.40     6.19     5.96     5.70     5.41     5.11     4.77     4.40     4.06     
 3.74     3.46     3.24     3.15     3.17     3.26     3.38     3.52     3.66     3.83     
 4.02     4.20     4.40     4.62     4.87     5.12     5.38     5.65     5.93     6.23     
 6.54     6.85     7.18     7.52     7.88     8.23     8.60     8.99     9.38     9.76     
 10.17    10.58    11.01    11.46    11.91    12.40    12.89    13.39    13.89    14.41    
 14.96    15.53    16.12    16.72    17.35    17.99    18.70    19.46    20.26    21.13    
 22.07    23.12    24.26    25.50    26.85    28.38    30.10    31.99    34.04    36.37    
 39.09    42.10    45.51    49.42    53.97    59.29    65.40    72.66    81.17    91.28    
 103.20   118.16   133.15   151.45   171.18   192.96   216.18   240.06   265.32   289.93   
 313.87   336.46   356.90   375.02   389.39   400.28   407.01   409.82   408.57   403.74   
 396.00   385.95   373.97   360.00   344.70   326.79   307.23   286.68   264.60   242.72   
 224.04   
759177.00 763401.30 763488.46 756440.90 739041.02 701714.21 643450.50 572591.10 487801.12 398730.35 
 317626.62 236955.85 171819.74 131177.79 104264.95 77495.79 62940.60 49186.00 41923.37 35656.60 
 28735.84 24129.45 19991.16 16235.29 13200.38 10987.90 8784.16  7641.95  6891.64  6268.12  
 5771.93  5331.41  4886.38  4463.64  3964.65  3419.22  2889.20  2398.07  1946.43  1590.95  
 1280.06  1021.15  762.86   540.99   361.09   253.86   182.99   141.21   118.14   95.25    
 80.47    68.73    61.85    57.00    50.49    45.15    40.97    37.35    33.79    30.60    
 28.53    26.72    24.92    23.80    22.59    21.45    20.25    18.90    16.88    12.99    
 10.78    9.91     9.40     9.03     8.70     8.28     7.88     7.41     6.89     6.30     
 5.63     4.98     4.39     3.89     3.76     3.78     3.92     4.07     4.23     4.41     
 4.59     4.81     5.04     5.29     5.54     5.77     6.01     6.29     6.57     6.87     
 7.20     7.52     7.87     8.20     8.55     8.93     9.33     9.74     10.19    10.65    
 11.13    11.62    12.12    12.62    13.14    13.67    14.12    14.40    14.70    14.98    
 15.36    15.84    16.44    17.12    17.81    18.44    19.01    19.57    20.15    20.78    
 21.55    22.44    23.46    24.58    25.86    27.24    28.78    30.51    32.50    34.53    
 36.76    39.45    42.66    46.52    50.98    56.37    62.82    70.45    79.29    90.10    
 102.93   117.28   133.24   151.01   169.62   190.57   211.70   233.70   256.49   279.30   
 300.05   318.70   335.93   350.61   362.21   371.50   377.53   378.85   375.77   370.97   
 363.23   353.98   341.06   330.11   314.91   296.01   278.07   259.78   240.79   221.97   
 224.04   
759177.00 759656.61 755259.04 742553.82 715343.81 664727.76 593868.97 513804.09 425383.18 338183.65 
 270428.14 202857.31 157764.15 122425.86 98114.81 80228.99 66202.24 55202.20 46855.20 40646.83 
 35218.75 30665.75 26280.45 21904.99 18702.06 16270.00 14406.87 12932.18 11725.27 10737.21 
 9897.30  9064.10  8353.94  7726.72  7151.22  6648.03  6180.11  5788.41  5420.84  5053.95  
 4716.11  4390.71  4105.88  3818.61  3528.67  3256.20  3004.32  2759.57  2514.83  2270.18  
 2035.19  1787.14  1536.01  1301.20  1052.74  825.89   629.30   477.43   378.07   305.16   
 255.66   206.27   168.58   135.65   111.17   92.10    77.47    65.17    55.37    46.66    
 39.42    33.81    29.22    26.00    23.20    21.06    18.67    15.86    11.64    10.03    
 9.24     8.26     7.06     5.46     3.88     3.16     3.22     3.31     3.42     3.55     
 3.69     3.85     4.02     4.22     4.43     4.64     4.88     5.13     5.40     5.67     
 5.95     6.23     6.52     6.83     7.15     7.48     7.83     8.20     8.58     8.97     
 9.39     9.82     10.26    10.70    11.18    11.67    12.17    12.69    13.20    13.71    
 14.24    14.78    15.36    15.94    16.56    17.20    17.90    18.62    19.41    20.24    
 21.13    22.13    23.18    24.28    25.52    26.89    28.55    30.34    32.36    34.67    
 37.24    40.19    43.86    48.19    53.37    59.65    67.11    76.13    86.69    99.20    
 114.92   130.65   148.32   168.29   189.34   211.67   234.86   257.58   280.81   303.03   
 323.93   342.83   359.49   373.88   385.25   393.89   399.20   401.09   399.63   394.93   
 387.88   378.20   365.51   350.47   334.35   317.39   299.44   281.39   262.09   243.07   
 224.04   
759177.00 758819.64 754581.09 743651.17 718149.60 668474.25 593596.99 510426.44 418748.16 331658.26 
 264670.14 197937.10 154413.46 121110.92 96626.03 79063.17 65628.08 55220.55 46689.45 40335.82 
 34945.91 30509.80 27012.84 23515.89 20034.08 17876.55 16153.84 14822.18 13774.32 12919.73 
 12122.55 11353.16 10737.40 10166.24 9642.81  9200.43  8793.33  8410.62  8061.14  7761.57  
 7462.34  7189.27  6944.23  6700.94  6437.34  6188.12  5921.91  5650.25  5383.52  5135.12  
 4906.56  4693.48  4493.20  4310.33  4129.47  3962.75  3793.22  3618.92  3440.29  3260.99  
 3091.50  2920.82  2749.03  2582.91  2416.84  2254.93  2092.97  1929.71  1775.28  1622.83  
 1476.52  1333.92  1197.66  1070.75  947.17   829.01   718.33   615.48   523.50   441.95   
 368.00   299.78   243.76   187.89   144.86   106.82   78.23    54.34    26.11    7.25     
 3.70     2.72     2.46     2.35     2.33     2.30     2.07     1.58     1.62     1.70     
 1.70     1.70     1.66     1.71     1.77     1.85     2.00     2.00     2.05     2.18     
 2.26     2.25     2.37     2.51     2.54     2.69     2.83     3.02     3.22     3.30     
 3.40     3.49     3.59     3.70     3.83     3.97     4.11     4.27     4.45     4.64     
 4.84     5.07     5.32     5.57     5.84     6.16     6.51     6.92     7.41     7.98     
 8.66     9.44     10.43    11.62    13.01    14.72    16.64    18.86    21.38    24.15    
 27.17    30.42    33.92    37.74    41.88    46.34    51.08    56.12    61.46    66.85    
 72.39    78.14    83.85    89.82    95.73    101.96   108.47   115.04   121.37   128.32   
 134.94   141.77   147.76   153.39   160.38   168.43   177.41   187.35   198.73   211.17   
 224.04   
759177.00 756927.26 749924.29 733476.75 699426.60 641464.86 557735.54 466351.24 377039.16 297921.07 
 232620.13 183196.73 146548.11 119369.76 100314.22 81322.05 68303.25 58628.68 50769.84 44271.64 
 38557.29 33399.34 28881.47 24712.12 21360.49 18807.16 17012.94 15746.86 14796.46 14032.14 
 13378.62 12792.35 12253.43 11792.87 11403.58 11014.88 10690.41 10411.54 10138.50 9914.07  
 9720.12  9531.20  9349.04  9150.35  8900.95  8636.50  8350.18  8070.79  7814.40  7569.25  
 7345.77  7124.20  6909.76  6705.65  6501.24  6298.01  6099.13  5901.88  5707.40  5501.88  
 5295.48  5095.55  4895.91  4693.52  4483.20  4276.76  4077.85  3890.47  3688.18  3478.25  
 3274.97  3085.99  2898.42  2698.90  2508.35  2330.12  2166.21  1999.28  1839.43  1688.34  
 1546.81  1421.95  1300.79  1188.66  1082.65  976.71   880.69   798.75   727.05   664.77   
 612.51   558.69   507.40   460.99   417.68   378.20   342.35   310.18   282.30   256.62   
 232.50   210.94   193.28   177.18   161.94   147.31   134.29   121.80   109.31   96.83    
 85.88    76.41    67.97    59.69    51.40    43.84    36.77    30.29    24.70    20.60    
 12.34    4.36     3.16     3.11     3.18     3.33     3.48     3.63     3.82     4.00     
 4.38     4.88     5.40     5.94     6.80     7.32     7.40     7.13     7.20     7.65     
 8.13     8.85     9.66     10.61    12.56    13.99    15.74    17.87    20.18    22.86    
 25.90    29.11    31.86    34.94    39.01    43.31    47.86    52.53    57.32    62.20    
 67.13    72.21    77.30    82.60    88.03    93.62    99.25    104.82   110.67   117.22   
 122.69   128.94   135.28   141.85   149.64   158.22   168.19   179.81   192.72   207.36   
 224.04   
759177.00 756049.19 748011.83 729631.37 692733.62 631380.99 550455.67 457603.70 369400.20 294025.04 
 241161.40 188497.67 154013.97 127166.81 106606.88 91463.47 79554.04 69649.76 61477.34 54339.25 
 47994.11 41822.57 36582.80 31775.19 27661.58 24648.20 21643.66 19382.96 17684.92 16367.69 
 15360.67 14515.49 13806.04 13269.32 12854.13 12503.29 12187.76 11889.43 11610.50 11337.03 
 11091.70 10857.68 10626.32 10409.79 10212.03 9996.97  9752.05  9485.97  9198.37  8926.15  
 8686.86  8462.95  8239.73  8008.80  7772.21  7544.87  7333.80  7129.36  6918.13  6699.21  
 6463.93  6213.53  5951.81  5699.65  5454.84  5208.59  4965.17  4726.38  4478.51  4230.10  
 3969.49  3711.01  3466.94  3239.48  3016.42  2797.52  2581.21  2365.13  2170.52  1988.41  
 1815.71  1655.33  1512.33  1385.42  1271.68  1165.79  1070.26  986.69   912.27   851.36   
 797.14   736.32   677.96   623.31   573.04   530.85   492.44   458.24   427.75   399.42   
 374.85   354.94   337.86   322.49   308.58   296.22   284.93   274.68   265.58   257.83   
 250.53   243.57   236.99   230.42   223.84   217.13   210.34   203.18   196.01   189.17   
 181.72   173.92   165.75   157.54   148.67   140.09   130.78   121.29   112.06   100.70   
 87.60    71.71    47.66    27.10    16.93    14.23    13.47    7.18     4.52     4.75     
 5.15     5.69     6.35     7.23     8.38     9.78     11.48    13.46    16.04    19.09    
 22.39    26.27    34.97    43.71    35.34    39.55    44.09    48.82    53.80    58.91    
 63.98    68.94    73.80    78.59    83.25    87.83    92.26    96.68    101.18   105.75   
 110.32   115.75   121.98   128.91   136.80   145.81   156.32   167.76   181.87   197.87   
 224.04   
759177.00 754000.67 742759.84 718858.45 675583.23 607113.15 520839.81 429935.42 347552.75 277728.63 
 223160.26 182776.10 152690.96 130287.23 115934.08 101643.84 87353.61 78366.89 70800.13 63266.12 
 56682.09 50552.44 44778.72 39422.67 34887.80 31020.98 27770.04 25040.21 22666.11 20576.78 
 18701.19 17144.16 15898.90 14988.78 14327.97 13821.83 13363.90 12949.41 12575.41 12231.95 
 11923.94 11665.18 11406.90 11148.61 10936.67 10691.84 10427.68 10193.52 9973.48  9711.49  
 9436.43  9152.61  8899.99  8657.58  8416.06  8165.02  7905.58  7624.26  7329.66  7036.95  
 6752.97  6474.59  6198.66  5929.49  5656.81  5393.61  5130.89  4867.79  4590.00  4300.59  
 4025.77  3769.31  3512.11  3255.39  3001.85  2772.89  2539.81  2310.25  2103.33  1913.64  
 1743.14  1589.46  1435.91  1300.20  1188.00  1095.22  1002.62  919.40   852.40   798.09   
 744.48   683.03   627.15   579.60   537.58   501.43   472.00   446.74   424.37   405.14   
 388.67   375.08   363.01   352.37   342.85   333.20   325.25   317.75   311.12   304.36   
 297.98   292.29   286.35   281.31   275.89   270.55   265.43   261.21   256.61   252.30   
 248.12   243.99   239.81   235.85   230.82   225.66   220.32   214.81   209.57   203.89   
 198.25   190.10   181.92   173.23   164.53   155.75   146.37   136.81   125.76   113.04   
 100.31   84.76    46.59    17.53    11.57    10.97    10.72    11.80    14.10    16.72    
 19.70    22.94    26.56    30.52    34.71    39.23    44.28    49.80    55.79    69.57    
 75.92    72.45    78.74    85.16    91.27    96.77    101.55   105.88   109.52   112.61   
