IESNA:LM-63-2002
[TEST] 1
[TESTLAB] AOK
[TESTDATE] 2022-05-17
[ISSUEDATE] 2022-05-17 14:28:25
[NEARFIELD] 
[LAMPPOSITION] 0,0
[OTHER] EVERFINE GO-2000A_V1 SYSTEM
[MANUFAC] AOK
[LUMCAT] A
[LUMINAIRE] AOK-800WiSF-NV-S5-00-5070-3585D-P
[LAMPCAT] B
[LAMP] 5050
[BALLAST] E
[BALLASTCAT] F
[OTHER] 
[OTHER] Gamma(deg)    Fz(lm)      Ft(lm)     %Lum    %Lamp
[OTHER]   0- 10      8239.65     8239.65     7.56     7.56
[OTHER]  10- 20     18747.47    26987.12    24.77    24.77
[OTHER]  20- 30     21479.06    48466.18    44.49    44.49
[OTHER]  30- 40     20442.02    68908.20    63.26    63.26
[OTHER]  40- 50     16589.21    85497.41    78.49    78.49
[OTHER]  50- 60     11763.19    97260.59    89.29    89.29
[OTHER]  60- 70      6709.32   103969.91    95.44    95.44
[OTHER]  70- 80      2995.41   106965.31    98.19    98.19
[OTHER]  80- 90      1044.67   108009.99    99.15    99.15
[OTHER]  90-100       367.49   108377.48    99.49    99.49
[OTHER] 100-110       160.77   108538.25    99.64    99.64
[OTHER] 110-120       109.36   108647.61    99.74    99.74
[OTHER] 120-130        84.54   108732.15    99.82    99.82
[OTHER] 130-140        67.23   108799.38    99.88    99.88
[OTHER] 140-150        53.01   108852.39    99.93    99.93
[OTHER] 150-160        40.00   108892.39    99.96    99.96
[OTHER] 160-170        29.15   108921.54    99.99    99.99
[OTHER] 170-180        10.62   108932.16   100.00   100.00
[OTHER] 
TILT=NONE
1 1.0893e+005 1 181 25 1 2 0.150 0.200 0.000
1.000 1 799.908
0.0    1.0    2.0    3.0    4.0    5.0    6.0    7.0    8.0    9.0    
 10.0   11.0   12.0   13.0   14.0   15.0   16.0   17.0   18.0   19.0   
 20.0   21.0   22.0   23.0   24.0   25.0   26.0   27.0   28.0   29.0   
 30.0   31.0   32.0   33.0   34.0   35.0   36.0   37.0   38.0   39.0   
 40.0   41.0   42.0   43.0   44.0   45.0   46.0   47.0   48.0   49.0   
 50.0   51.0   52.0   53.0   54.0   55.0   56.0   57.0   58.0   59.0   
 60.0   61.0   62.0   63.0   64.0   65.0   66.0   67.0   68.0   69.0   
 70.0   71.0   72.0   73.0   74.0   75.0   76.0   77.0   78.0   79.0   
 80.0   81.0   82.0   83.0   84.0   85.0   86.0   87.0   88.0   89.0   
 90.0   91.0   92.0   93.0   94.0   95.0   96.0   97.0   98.0   99.0   
 100.0  101.0  102.0  103.0  104.0  105.0  106.0  107.0  108.0  109.0  
 110.0  111.0  112.0  113.0  114.0  115.0  116.0  117.0  118.0  119.0  
 120.0  121.0  122.0  123.0  124.0  125.0  126.0  127.0  128.0  129.0  
 130.0  131.0  132.0  133.0  134.0  135.0  136.0  137.0  138.0  139.0  
 140.0  141.0  142.0  143.0  144.0  145.0  146.0  147.0  148.0  149.0  
 150.0  151.0  152.0  153.0  154.0  155.0  156.0  157.0  158.0  159.0  
 160.0  161.0  162.0  163.0  164.0  165.0  166.0  167.0  168.0  169.0  
 170.0  171.0  172.0  173.0  174.0  175.0  176.0  177.0  178.0  179.0  
 180.0  
0.0    15.0   30.0   45.0   60.0   75.0   90.0   105.0  120.0  135.0  
 150.0  165.0  180.0  195.0  210.0  225.0  240.0  255.0  270.0  285.0  
 300.0  315.0  330.0  345.0  360.0  
89898.03 87623.40 86420.60 81152.79 74440.23 68955.13 60580.05 54351.33 47028.17 40036.23 
 31823.19 27542.11 25190.44 23113.79 21385.21 19815.15 15253.15 12779.23 10081.03 7379.69  
 5064.04  3492.98  1827.29  1369.50  925.30   481.09   36.89    22.20    17.64    14.79    
 12.99    11.58    10.42    9.44     8.83     8.33     7.84     7.40     6.96     6.60     
 6.30     6.05     5.85     5.73     5.57     5.49     5.34     5.24     5.12     4.99     
 4.79     4.62     4.56     4.53     4.50     4.38     4.21     4.02     3.89     3.80     
 3.72     3.68     3.65     3.62     3.59     3.58     3.57     3.57     3.56     3.55     
 3.55     3.55     3.55     3.55     3.55     3.55     3.55     3.60     3.66     3.73     
 3.83     3.94     4.07     4.20     4.34     4.51     4.70     4.92     5.16     5.45     
 5.75     6.07     6.42     6.80     7.21     7.64     8.13     8.62     9.17     9.78     
 10.46    11.17    11.92    12.72    13.58    14.49    15.41    16.38    17.41    18.49    
 19.62    20.81    22.05    23.31    24.61    25.98    27.38    28.80    30.30    31.94    
 33.66    35.43    37.37    39.34    41.42    43.55    45.87    48.25    50.70    53.21    
 55.80    58.40    61.11    63.89    66.67    69.48    72.33    75.29    78.32    81.39    
 84.60    87.99    91.55    95.21    99.01    102.99   107.10   111.27   115.55   120.04   
 124.70   129.30   133.69   137.95   142.33   146.42   150.06   153.21   155.95   158.44   
 160.50   162.28   163.67   164.49   164.62   164.13   163.00   161.16   158.78   156.02   
 152.66   148.71   144.63   140.39   136.03   130.90   125.56   119.94   114.36   108.58   
 101.65   
89898.03 86762.09 85537.92 84015.91 74752.65 69722.94 63992.28 56702.45 50165.98 43553.41 
 37508.21 29331.32 26737.38 24143.44 21558.14 19933.47 18287.79 14027.85 11650.78 9139.00  
 6867.69  4726.44  3329.85  1933.25  547.41   400.32   253.23   107.37   92.03    71.70    
 50.46    46.08    38.11    33.25    34.11    29.70    21.71    17.67    14.76    12.99    
 11.99    11.19    10.35    9.65     9.08     8.47     7.87     7.19     6.88     6.66     
 6.41     6.24     6.07     5.86     5.69     5.55     5.41     5.23     5.06     4.90     
 4.84     4.84     4.83     4.77     4.66     4.52     4.38     4.26     4.14     4.03     
 3.94     3.85     3.79     3.76     3.75     3.75     3.75     3.76     3.79     3.84     
 3.91     4.00     4.13     4.27     4.44     4.63     4.83     5.06     5.32     5.60     
 5.91     6.25     6.61     7.01     7.45     7.95     8.46     9.01     9.61     10.28    
 11.00    11.73    12.50    13.35    14.20    15.17    16.15    17.19    18.23    19.34    
 20.50    21.73    22.99    24.24    25.56    26.99    28.47    30.05    31.68    33.34    
 35.11    37.06    39.05    41.11    43.18    45.34    47.55    49.89    52.28    54.68    
 57.11    59.64    62.18    64.71    67.24    69.88    72.65    75.43    78.27    81.28    
 84.53    87.89    91.37    94.99    98.68    102.59   106.55   110.64   114.85   119.22   
 123.67   128.05   132.26   136.51   140.43   144.02   147.30   150.29   153.09   155.55   
 157.62   159.28   160.39   160.87   160.04   159.11   157.75   155.77   153.57   151.03   
 148.11   145.07   141.72   138.09   134.26   130.08   125.56   120.78   115.69   110.66   
 101.65   
89898.03 87093.01 84755.40 83653.01 78559.58 72978.79 67331.59 61874.60 55176.08 49199.59 
 43481.58 37306.00 30824.62 25964.04 23546.35 21576.40 19713.59 18217.01 16596.45 12708.84 
 10540.93 8393.95  6246.97  4624.20  3540.04  2412.63  1705.18  1002.15  299.12   208.68   
 150.39   127.03   104.08   81.13    62.93    55.44    48.05    40.55    36.50    34.06    
 30.30    27.27    24.29    22.25    20.44    18.75    17.09    15.59    14.27    12.85    
 11.46    10.06    8.87     8.58     8.98     9.15     8.92     8.49     7.99     7.52     
 7.10     6.73     6.41     6.11     5.87     5.66     5.48     5.31     5.13     4.96     
 4.82     4.70     4.57     4.45     4.34     4.25     4.18     4.12     4.09     4.09     
 4.13     4.26     4.44     4.66     4.90     5.16     5.44     5.76     6.10     6.49     
 6.91     7.38     7.87     8.41     9.02     9.67     10.36    11.10    11.88    12.72    
 13.59    14.51    15.47    16.48    17.54    18.66    19.80    20.98    22.22    23.51    
 24.83    26.23    27.68    29.16    30.72    32.38    34.04    35.78    37.56    39.40    
 41.26    43.16    45.10    47.06    49.03    51.05    53.15    55.32    57.51    59.71    
 62.00    64.38    66.88    69.47    72.21    75.03    77.97    81.12    84.35    87.66    
 90.99    94.51    98.12    101.82   105.58   109.50   113.49   117.48   121.33   125.20   
 129.03   132.64   136.08   139.33   142.54   145.39   147.93   150.18   152.21   154.01   
 155.37   156.22   156.58   156.56   156.01   155.15   153.92   152.27   150.97   149.09   
 146.85   144.37   141.43   138.56   135.26   131.61   127.76   123.68   119.75   115.71   
 101.65   
89898.03 87247.03 84753.13 83317.72 82351.04 78247.86 71790.45 68192.59 63802.12 58319.87 
 53197.83 48322.31 42673.55 38531.56 34065.40 28181.20 25379.24 22586.03 20693.23 18888.11 
 17250.84 15699.39 14302.74 11147.39 9402.18  7621.56  5770.94  4879.65  3617.94  2761.42  
 1904.22  958.31   580.94   403.71   328.21   252.70   177.66   153.93   129.85   111.32   
 92.79    80.56    69.94    60.90    52.86    46.62    41.15    35.95    32.77    29.97    
 27.08    23.02    19.12    16.12    14.29    13.12    12.96    12.46    11.90    11.13    
 10.43    9.78     9.18     8.65     8.23     7.88     7.55     7.19     6.90     6.63     
 6.38     6.11     5.85     5.59     5.34     5.09     4.87     4.71     4.60     4.59     
 4.63     4.80     5.06     5.38     5.72     6.10     6.51     6.98     7.46     7.98     
 8.54     9.14     9.74     10.42    11.15    11.92    12.72    13.56    14.50    15.47    
 16.44    17.47    18.56    19.72    20.94    22.16    23.43    24.77    26.18    27.63    
 29.09    30.64    32.25    33.89    35.53    37.26    39.06    40.91    42.71    44.62    
 46.64    48.75    50.93    53.11    55.33    57.64    60.07    62.63    65.28    67.90    
 70.58    73.42    76.34    79.26    82.19    85.27    88.43    91.51    94.67    97.91    
 101.22   104.51   107.75   110.98   114.16   117.35   120.42   123.42   126.33   129.16   
 131.92   134.53   137.00   139.42   141.68   143.77   145.62   147.06   148.30   149.22   
 149.95   150.50   150.80   150.74   150.42   149.91   149.15   148.11   146.95   145.62   
 144.03   142.27   140.86   138.28   135.56   132.85   129.92   126.88   123.97   120.78   
 101.65   
89898.03 87776.45 85489.63 84095.98 82992.06 81397.11 80115.11 76087.27 71209.45 68272.43 
 64534.64 61078.82 57486.33 53091.00 49943.61 46914.70 42404.43 38806.44 35787.28 32103.15 
 28690.56 24869.34 22213.46 20294.27 18597.13 16941.25 15445.34 14032.78 12582.29 11077.03 
 9571.09  8065.15  6705.29  5427.94  4349.01  3636.61  2964.92  2371.73  1829.77  1346.28  
 1053.85  763.82   473.79   358.04   283.42   222.08   177.05   142.68   123.12   103.70   
 84.29    73.01    61.61    53.83    46.26    40.14    36.34    32.80    28.49    25.91    
 22.66    19.28    16.15    15.26    14.51    13.52    12.45    11.55    10.61    9.93     
 9.44     8.86     8.38     8.01     7.62     7.19     6.74     6.33     6.00     5.78     
 5.70     5.86     6.20     6.60     7.02     7.47     7.95     8.48     9.06     9.67     
 10.35    11.08    11.88    12.68    13.56    14.49    15.47    16.49    17.59    18.76    
 19.99    21.25    22.59    24.00    25.46    26.95    28.54    30.15    31.84    33.59    
 35.39    37.26    39.20    41.14    43.20    45.32    47.48    49.70    52.01    54.35    
 56.76    59.17    61.74    64.31    66.92    69.57    72.33    75.12    77.94    80.74    
 83.58    86.44    89.34    92.23    95.08    97.89    100.74   103.61   106.46   109.27   
 112.04   114.76   117.47   120.15   122.72   125.23   127.69   130.07   132.15   134.00   
 135.70   137.24   138.75   139.95   141.17   142.23   143.17   143.96   144.68   145.36   
 145.92   146.46   146.89   147.17   147.30   147.33   147.02   146.44   145.80   145.01   
 144.24   142.87   141.43   139.95   138.15   136.25   134.42   132.35   130.11   127.77   
 101.65   
89898.03 88885.02 86920.13 85582.72 84359.76 82898.97 81775.01 80116.93 79067.41 77437.80 
 76223.19 74790.39 73336.78 71256.63 68301.56 65839.89 62891.25 60677.18 58432.39 56221.97 
 53648.57 51267.04 49011.20 46410.32 43983.11 41385.28 38857.22 36722.59 34240.36 31999.33 
 29386.88 27092.56 25043.63 22994.70 20947.77 19138.73 17268.62 15498.64 13983.50 12608.00 
 11325.53 10243.45 9115.53  8112.71  7100.10  6195.35  5351.68  4588.74  3810.49  3171.00  
 2531.51  1894.53  1514.81  1222.90  1001.33  824.20   670.98   541.27   422.95   324.32   
 258.49   192.88   150.41   118.78   94.50    75.71    61.26    49.55    39.28    33.85    
 28.41    23.33    18.80    17.76    16.02    14.24    12.63    11.38    10.11    8.48     
 6.62     5.52     5.61     5.95     6.34     6.75     7.23     7.73     8.25     8.82     
 9.43     10.07    10.77    11.54    12.36    13.22    14.14    15.12    16.17    17.30    
 18.47    19.67    20.96    22.36    23.83    25.34    26.89    28.55    30.24    31.97    
 33.85    35.84    37.83    39.83    41.89    44.09    46.36    48.73    51.04    53.42    
 55.92    58.50    61.17    63.91    66.57    69.32    72.11    74.98    77.87    80.78    
 83.58    86.52    89.43    92.31    94.99    97.74    100.58   103.22   105.78   108.05   
 109.68   111.89   114.29   116.57   118.86   121.15   123.28   125.34   127.23   129.06   
 130.82   132.55   134.13   135.69   137.13   138.50   139.82   141.02   142.15   143.21   
 144.19   145.19   146.14   146.93   147.58   148.05   148.25   148.23   148.12   147.90   
 147.54   147.01   146.37   145.62   144.73   143.46   142.13   140.73   139.07   137.32   
 101.65   
89898.03 89917.26 89157.30 88683.39 88217.02 87389.36 86550.01 85419.00 84739.85 83472.26 
 82388.50 81755.83 80586.19 79714.87 78532.93 77281.45 76192.14 75374.33 74051.76 72661.01 
 71218.51 70130.31 68712.58 67327.10 65631.29 64235.51 62352.08 60858.75 59124.41 57160.71 
 55256.57 53241.99 51428.39 49448.76 47552.72 45664.29 43399.49 41222.64 39429.74 37867.67 
 36035.94 34216.29 32321.44 30554.87 28886.00 27064.36 25442.93 23821.49 22199.91 20567.95 
 19098.74 17710.60 16403.06 15077.75 13864.40 12679.32 11611.10 10582.42 9595.61  8678.41  
 7894.97  7121.85  6371.33  5691.09  5065.62  4518.87  3991.14  3509.30  3060.46  2680.70  
 2301.61  1980.11  1694.84  1434.67  1200.66  984.19   791.40   628.47   490.42   367.09   
 272.80   178.82   111.55   60.18    17.37    5.18     3.93     3.59     3.52     3.45     
 3.31     2.89     2.59     2.65     2.75     2.86     2.99     3.16     3.35     3.57     
 3.78     4.01     4.24     4.50     4.76     5.02     5.31     5.61     5.94     6.29     
 6.65     7.04     7.45     7.91     8.40     8.91     9.42     9.97     10.54    11.14    
 11.77    12.43    13.10    13.80    14.54    15.32    16.13    16.96    17.81    18.68    
 19.59    20.51    21.47    22.51    23.56    24.63    25.76    26.90    28.12    29.34    
 30.62    31.96    33.36    34.85    36.39    38.05    39.76    41.42    43.11    44.87    
 46.70    48.61    50.63    52.70    54.83    57.10    59.53    62.19    64.92    67.74    
 70.73    73.95    77.33    80.84    84.44    87.99    91.37    94.56    97.47    100.47   
 103.36   106.32   109.26   112.16   114.90   117.25   119.48   121.61   123.52   125.42   
 101.65   
89898.03 90613.15 90606.86 91241.48 91777.34 92231.30 92347.28 92615.33 92868.94 93206.12 
 93149.27 93483.81 93610.30 93719.05 93931.47 93657.58 93305.07 92839.50 92313.06 91491.10 
 90598.59 89637.67 88365.03 86954.05 85386.32 83741.46 81844.48 79803.38 77269.69 74886.49 
 72261.70 69670.48 67278.95 64937.07 62655.45 60549.92 58318.10 55909.62 53733.30 51811.73 
 49888.72 47874.01 46045.77 44063.78 42040.50 40232.27 38298.21 36438.91 34699.99 32962.00 
 31117.22 29537.53 27936.55 26387.17 24878.14 23405.35 22060.53 20796.60 19541.32 18266.15 
 17058.69 15926.73 14792.24 13737.41 12751.11 11811.13 10871.57 9932.01  9156.93  8354.53  
 7638.48  6929.59  6303.43  5702.42  5208.30  4718.04  4276.71  3845.93  3460.12  3121.22  
 2817.49  2542.78  2290.96  2056.16  1837.79  1647.06  1475.18  1330.55  1190.21  1066.60  
 943.14   828.33   729.23   639.98   563.17   495.71   438.35   390.45   348.54   310.92   
 278.90   251.51   228.42   207.54   188.47   170.98   155.77   142.19   130.10   119.71   
 109.33   101.49   93.90    84.45    73.51    61.07    48.18    37.13    30.71    21.78    
 11.09    8.16     8.19     8.68     9.25     9.88     10.53    11.21    11.94    12.71    
 13.49    14.25    15.14    16.05    17.00    17.97    19.09    20.51    21.14    21.67    
 22.53    23.55    24.47    25.34    26.30    27.15    27.89    29.02    30.58    32.20    
 33.63    35.02    35.84    37.03    38.70    40.42    42.34    44.41    46.57    48.92    
 51.46    54.28    57.28    60.58    64.13    68.15    71.91    74.88    78.20    81.68    
 85.16    88.76    92.29    95.80    99.32    102.72   106.14   109.38   112.54   115.72   
 101.65   
89898.03 91261.06 92846.09 94304.73 96208.71 97988.47 99717.90 101249.16 102563.43 104048.85 
 105125.60 105717.00 105752.31 105333.95 104335.79 102557.03 99904.12 97209.18 94982.08 92859.35 
 90634.01 88319.88 85924.51 83768.51 81594.23 79567.45 77526.90 75668.10 73664.77 71588.25 
 69712.08 67830.57 65924.41 63952.93 61852.46 59644.47 57462.34 55444.34 53468.42 51344.84 
 49215.93 47296.20 45444.19 43689.22 42040.85 40279.23 38748.19 37130.21 35588.20 34058.74 
 32577.94 31161.99 29829.04 28440.24 27067.99 25729.46 24555.60 23379.29 21987.68 20657.07 
 19423.07 18419.96 17382.14 16382.52 15429.11 14396.83 13430.05 12490.97 11529.86 10626.58 
 9719.64  8881.01  8106.02  7308.41  6481.98  5742.77  5117.28  4556.42  4056.28  3554.64  
 3137.32  2838.46  2539.60  2241.61  2015.66  1818.37  1644.33  1501.68  1378.32  1243.98  
 1113.89  993.99   885.48   793.76   711.02   643.79   584.78   535.02   491.04   452.46   
 419.42   391.51   365.96   344.93   326.46   310.61   296.31   283.37   271.80   261.84   
 252.77   244.46   236.16   227.87   220.57   213.76   207.36   201.30   195.52   189.38   
 183.24   177.40   171.46   165.24   157.89   149.27   140.13   131.13   121.79   111.60   
 100.45   88.81    74.64    51.88    34.64    27.16    23.01    19.98    13.82    10.99    
 11.63    12.48    13.37    14.29    15.26    16.26    17.28    18.31    19.39    20.52    
 21.76    23.07    24.28    25.80    29.96    36.09    29.59    30.64    32.26    34.10    
 36.21    38.63    41.50    44.67    47.97    51.40    54.54    57.98    61.52    65.34    
 69.04    72.95    76.92    81.09    85.39    89.66    94.00    98.22    102.51   106.94   
 101.65   
89898.03 92295.57 95050.77 97512.71 100584.65 103401.36 106207.86 108770.64 110300.43 110765.69 
 110437.97 107908.52 104912.32 102584.32 99937.71 97588.69 95144.54 93024.42 91067.25 88971.84 
 86723.26 84501.26 81971.72 79259.57 76405.92 73659.13 71117.28 68699.66 66471.99 64429.91 
 62697.18 61107.20 59874.18 58752.29 57831.24 56783.93 55699.56 54658.91 53461.78 51996.74 
 50469.13 48741.22 47155.23 45670.48 44266.57 42723.43 40807.20 38903.87 37244.73 35503.46 
 33842.13 32268.71 30744.08 29199.94 27715.54 26243.68 24867.88 23544.88 22210.32 20779.65 
 19468.27 18177.33 16974.86 15717.36 14459.31 13329.12 12232.08 11040.01 9847.11  8763.39  
 7886.59  7155.83  6467.82  5822.77  5239.27  4621.95  4071.54  3625.06  3238.26  2891.70  
 2584.80  2312.29  2061.14  1837.14  1654.01  1491.94  1361.65  1238.14  1142.01  1046.13  
 941.85   844.58   760.63   687.41   624.01   570.87   525.94   488.33   456.11   427.87   
 404.24   384.32   366.56   351.18   336.65   323.97   313.02   302.98   293.60   284.36   
 276.12   268.89   262.94   256.69   250.53   244.89   239.57   234.47   229.24   223.91   
 219.11   214.01   207.99   201.70   195.49   189.20   183.17   177.36   171.48   165.62   
 159.86   154.48   149.51   144.45   139.21   133.58   126.42   119.24   110.81   100.82   
 90.06    81.03    70.87    46.02    21.78    17.61    15.31    13.91    12.62    12.74    
 13.79    14.91    16.05    17.27    18.55    19.87    21.29    22.79    24.61    26.75    
 29.38    37.01    38.32    35.23    37.76    40.64    43.83    47.05    50.45    54.05    
 57.69    61.57    65.75    70.02    74.48    79.04    83.92    89.02    94.17    99.55    
 101.65   
