IESNA:LM-63-2002
[TEST] 1
[TESTLAB] AOK
[TESTDATE] 2022-06-25
[ISSUEDATE] 2022-06-25 15:52:23
[NEARFIELD] 
[LAMPPOSITION] 0,0
[OTHER] EVERFINE GO-2000A_V1 SYSTEM
[MANUFAC] AOK
[LUMCAT] A
[LUMINAIRE] AOK-600WiSF-NV-S35-00-5070-2030D-P
[LAMPCAT] B
[LAMP] 3535
[BALLAST] E
[BALLASTCAT] F
[OTHER] 
[OTHER] Gamma(deg)    Fz(lm)      Ft(lm)     %Lum    %Lamp
[OTHER]   0- 10     22979.21    22979.21    31.90    31.90
[OTHER]  10- 20     24495.44    47474.65    65.91    65.91
[OTHER]  20- 30     10077.64    57552.29    79.91    79.91
[OTHER]  30- 40      5016.45    62568.74    86.87    86.87
[OTHER]  40- 50      3212.72    65781.46    91.33    91.33
[OTHER]  50- 60      2526.91    68308.37    94.84    94.84
[OTHER]  60- 70      1738.46    70046.83    97.25    97.25
[OTHER]  70- 80       832.06    70878.89    98.41    98.41
[OTHER]  80- 90       359.77    71238.66    98.91    98.91
[OTHER]  90-100       200.06    71438.73    99.19    99.19
[OTHER] 100-110       146.91    71585.64    99.39    99.39
[OTHER] 110-120       118.47    71704.12    99.55    99.55
[OTHER] 120-130        89.96    71794.08    99.68    99.68
[OTHER] 130-140        64.94    71859.01    99.77    99.77
[OTHER] 140-150        52.63    71911.64    99.84    99.84
[OTHER] 150-160        54.01    71965.65    99.92    99.92
[OTHER] 160-170        43.94    72009.59    99.98    99.98
[OTHER] 170-180        15.87    72025.46   100.00   100.00
[OTHER] 
TILT=NONE
1 72025 1 181 25 1 2 0.150 0.200 0.000
1.000 1 598.999
0.0    1.0    2.0    3.0    4.0    5.0    6.0    7.0    8.0    9.0    
 10.0   11.0   12.0   13.0   14.0   15.0   16.0   17.0   18.0   19.0   
 20.0   21.0   22.0   23.0   24.0   25.0   26.0   27.0   28.0   29.0   
 30.0   31.0   32.0   33.0   34.0   35.0   36.0   37.0   38.0   39.0   
 40.0   41.0   42.0   43.0   44.0   45.0   46.0   47.0   48.0   49.0   
 50.0   51.0   52.0   53.0   54.0   55.0   56.0   57.0   58.0   59.0   
 60.0   61.0   62.0   63.0   64.0   65.0   66.0   67.0   68.0   69.0   
 70.0   71.0   72.0   73.0   74.0   75.0   76.0   77.0   78.0   79.0   
 80.0   81.0   82.0   83.0   84.0   85.0   86.0   87.0   88.0   89.0   
 90.0   91.0   92.0   93.0   94.0   95.0   96.0   97.0   98.0   99.0   
 100.0  101.0  102.0  103.0  104.0  105.0  106.0  107.0  108.0  109.0  
 110.0  111.0  112.0  113.0  114.0  115.0  116.0  117.0  118.0  119.0  
 120.0  121.0  122.0  123.0  124.0  125.0  126.0  127.0  128.0  129.0  
 130.0  131.0  132.0  133.0  134.0  135.0  136.0  137.0  138.0  139.0  
 140.0  141.0  142.0  143.0  144.0  145.0  146.0  147.0  148.0  149.0  
 150.0  151.0  152.0  153.0  154.0  155.0  156.0  157.0  158.0  159.0  
 160.0  161.0  162.0  163.0  164.0  165.0  166.0  167.0  168.0  169.0  
 170.0  171.0  172.0  173.0  174.0  175.0  176.0  177.0  178.0  179.0  
 180.0  
0.0    15.0   30.0   45.0   60.0   75.0   90.0   105.0  120.0  135.0  
 150.0  165.0  180.0  195.0  210.0  225.0  240.0  255.0  270.0  285.0  
 300.0  315.0  330.0  345.0  360.0  
320741.53 321735.86 319256.43 311838.06 277520.85 230122.39 185226.91 135708.70 103591.55 71686.86 
 39782.17 21314.09 11988.49 8157.48  4385.37  613.26   488.86   331.60   141.17   93.15    
 46.88    34.81    27.55    22.38    18.79    16.22    14.08    12.47    11.28    10.24    
 9.56     9.83     10.03    10.06    9.45     8.77     8.28     7.31     6.50     5.81     
 5.57     5.43     5.11     4.95     4.70     4.55     4.57     4.66     4.38     4.02     
 3.89     3.79     3.78     3.78     3.88     4.00     3.90     3.81     3.73     3.73     
 3.73     3.74     3.74     3.74     3.73     3.72     3.70     3.68     3.66     3.65     
 3.64     3.63     3.62     3.62     3.60     3.60     3.60     3.60     3.59     3.58     
 3.58     3.58     3.58     3.63     3.86     4.09     4.21     4.33     4.38     4.43     
 4.48     4.55     4.62     4.63     4.63     4.67     4.77     4.89     5.06     5.27     
 5.49     5.75     6.05     6.39     6.75     7.12     7.49     7.86     8.23     8.58     
 8.92     9.25     9.57     9.90     10.24    10.61    11.03    11.46    11.94    12.44    
 12.95    13.51    14.09    14.71    15.35    16.01    16.71    17.47    18.25    19.06    
 19.89    20.75    21.64    22.58    23.56    24.63    25.95    27.55    29.48    31.67    
 34.22    37.09    40.35    44.13    48.39    53.20    58.70    64.94    71.93    80.58    
 90.68    102.10   114.76   128.40   142.75   157.69   174.15   190.63   206.78   222.33   
 238.32   254.31   267.15   277.99   286.34   291.47   293.82   293.20   289.92   284.62   
 277.15   268.19   257.84   246.81   234.93   222.65   210.10   197.12   182.89   167.18   
 150.33   
320741.53 321444.62 319839.67 313657.84 298237.52 251776.27 205357.63 163214.41 114126.07 83151.18 
 52270.15 39594.10 26918.05 14242.00 1676.89  1450.04  1192.91  828.58   800.15   629.43   
 502.82   408.22   313.62   219.28   157.29   123.18   94.65    74.13    58.56    47.03    
 42.00    37.62    35.84    28.82    20.39    16.54    13.84    11.78    10.22    8.99     
 8.39     8.40     8.36     8.29     7.93     7.64     7.39     7.15     6.97     6.64     
 6.26     6.00     5.75     5.52     5.32     5.13     4.94     4.76     4.64     4.50     
 4.31     4.16     3.98     3.82     3.69     3.60     3.50     3.41     3.35     3.27     
 3.20     3.12     3.05     2.99     2.94     2.90     2.86     2.85     2.85     2.86     
 2.89     2.92     2.96     3.00     3.05     3.12     3.19     3.26     3.35     3.45     
 3.56     3.68     3.79     3.92     4.07     4.23     4.41     4.61     4.84     5.09     
 5.36     5.64     5.94     6.27     6.61     6.97     7.32     7.66     8.00     8.34     
 8.69     9.05     9.40     9.74     10.12    10.54    11.03    11.53    12.03    12.55    
 13.11    13.70    14.33    14.99    15.66    16.38    17.13    17.92    18.75    19.60    
 20.46    21.35    22.27    23.27    24.34    25.60    27.21    29.04    31.17    33.62    
 36.49    39.69    43.29    47.31    51.90    57.11    62.97    69.78    77.61    86.77    
 97.32    109.01   122.82   136.64   151.41   166.86   182.62   198.38   214.53   230.02   
 244.94   258.89   271.08   281.16   288.18   291.91   292.81   290.73   286.16   279.41   
 271.03   261.44   250.93   239.76   227.98   215.63   202.71   188.91   174.24   159.78   
 150.33   
320741.53 320619.84 318307.04 311387.54 300791.60 270184.66 224337.06 186693.34 148437.63 116729.03 
 85098.58 53468.14 36508.67 20298.34 14667.48 8501.78  2329.32  2059.54  1720.64  1295.70  
 1010.54  727.07   613.54   458.78   347.12   281.44   215.04   163.06   148.57   126.70   
 104.73   82.76    71.59    61.88    54.40    47.20    41.19    34.79    29.98    25.81    
 22.23    18.57    16.29    14.63    13.57    12.54    11.70    11.13    10.52    9.67     
 8.97     8.18     7.35     6.81     6.42     6.14     5.80     5.45     5.10     4.76     
 4.51     4.32     4.18     4.05     3.90     3.72     3.52     3.33     3.20     3.09     
 3.00     2.93     2.87     2.81     2.75     2.70     2.65     2.58     2.53     2.52     
 2.51     2.51     2.57     2.64     2.72     2.80     2.91     3.02     3.14     3.28     
 3.44     3.60     3.78     3.97     4.18     4.40     4.63     4.87     5.11     5.37     
 5.61     5.87     6.14     6.41     6.70     7.01     7.33     7.65     8.00     8.37     
 8.75     9.14     9.53     9.94     10.39    10.86    11.34    11.81    12.31    12.85    
 13.42    13.99    14.58    15.21    15.87    16.55    17.26    18.00    18.81    19.70    
 20.68    21.78    23.08    24.56    26.23    28.17    30.44    33.05    35.94    39.18    
 42.77    46.74    51.19    56.12    61.59    67.95    75.37    83.63    92.81    102.90   
 113.74   125.69   138.56   151.91   165.62   179.76   194.35   208.68   222.88   236.91   
 250.93   261.73   270.60   277.04   280.94   282.33   281.13   277.69   272.39   265.34   
 257.01   247.62   237.78   226.93   215.60   203.97   192.11   179.68   168.08   157.22   
 150.33   
320741.53 320714.06 317448.31 311303.70 302036.63 289219.10 257641.29 226063.49 194475.27 161482.32 
 126459.57 98276.75 68459.89 56061.38 37235.48 28771.95 20308.42 11893.96 8519.21  5144.47  
 1793.53  1537.78  1110.50  794.00   545.30   356.51   270.35   184.72   155.01   132.87   
 114.97   100.80   89.20    79.64    71.26    63.86    56.85    51.34    46.75    42.10    
 37.66    33.76    30.37    27.00    24.11    21.01    17.92    15.44    13.41    12.05    
 11.16    10.40    9.75     9.22     8.76     8.33     7.93     7.58     7.26     6.95     
 6.67     6.38     6.12     5.87     5.68     5.49     5.29     5.08     4.85     4.60     
 4.35     4.09     3.83     3.62     3.41     3.17     2.96     2.78     2.62     2.46     
 2.40     2.41     2.44     2.50     2.59     2.68     2.79     2.91     3.04     3.18     
 3.34     3.51     3.68     3.87     4.06     4.28     4.48     4.71     4.94     5.19     
 5.45     5.70     5.98     6.28     6.60     6.91     7.24     7.58     7.93     8.28     
 8.66     9.05     9.45     9.83     10.25    10.68    11.13    11.60    12.08    12.58    
 13.10    13.66    14.25    14.90    15.58    16.35    17.24    18.25    19.36    20.59    
 21.98    23.58    25.33    27.31    29.48    31.89    34.68    37.71    41.07    44.86    
 49.18    53.95    59.26    65.23    71.86    79.40    87.56    96.55    106.22   116.61   
 128.39   140.17   151.97   164.74   177.47   190.37   203.18   215.19   226.84   237.26   
 246.43   253.84   259.70   263.75   265.85   266.15   264.76   261.57   257.14   251.31   
 245.11   237.55   229.10   219.96   210.68   201.09   191.28   181.24   171.83   163.08   
 150.33   
320741.53 319305.03 314309.52 307106.49 297027.70 285784.44 271612.84 254918.24 235706.10 208921.58 
 173821.00 143440.91 121948.26 99311.18 76660.54 61873.61 42787.35 32168.45 25588.36 18664.58 
 12938.56 9916.44  6925.88  5323.74  4287.15  1705.21  1167.10  949.79   735.54   529.47   
 381.41   285.90   227.95   190.35   159.99   134.26   116.01   97.85    84.06    72.94    
 63.96    57.06    51.20    46.09    41.77    37.65    34.15    31.49    29.07    27.03    
 25.21    23.37    21.21    19.22    17.01    14.90    13.25    12.06    11.30    10.74    
 10.35    10.06    9.77     9.51     9.27     9.08     8.89     8.70     8.53     8.34     
 8.10     7.82     7.47     7.09     6.64     6.14     5.58     4.89     4.18     3.48     
 2.90     2.68     2.66     2.69     2.77     2.88     2.97     3.09     3.21     3.35     
 3.50     3.66     3.83     4.02     4.22     4.44     4.67     4.92     5.18     5.45     
 5.73     6.03     6.33     6.65     6.98     7.33     7.67     8.03     8.38     8.75     
 9.13     9.51     9.88     10.29    10.72    11.15    11.59    12.06    12.56    13.10    
 13.70    14.34    15.06    15.87    16.77    17.74    18.80    20.02    21.37    22.85    
 24.44    26.20    28.18    30.30    32.76    35.57    38.79    42.45    46.58    51.23    
 56.40    62.28    68.85    76.06    83.88    92.39    101.44   111.00   120.91   131.54   
 142.52   153.63   164.67   175.47   185.92   196.47   206.62   215.81   223.88   231.06   
 237.35   242.39   247.42   249.71   250.87   250.76   249.62   247.24   243.63   239.73   
 234.61   228.77   222.71   216.01   208.97   201.32   193.75   185.96   178.25   170.64   
 150.33   
320741.53 318321.73 313222.26 305725.26 295839.16 284492.39 271927.26 258210.42 241984.23 225739.37 
 207075.01 187177.80 165761.00 143689.07 122213.61 102641.84 85314.33 69248.78 55583.05 42706.48 
 34496.54 29324.31 25675.48 22025.41 18237.03 15314.05 13307.19 11559.92 9875.04  7776.24  
 6277.23  5154.24  4214.83  3508.89  2890.49  2274.11  1891.72  1575.83  1278.91  1039.78  
 843.40   665.02   525.35   420.53   340.77   271.16   201.78   159.97   128.57   104.71   
 87.82    74.83    64.28    56.66    49.68    44.49    40.43    36.68    33.91    31.69    
 29.90    28.16    26.79    25.55    24.50    23.33    21.87    20.42    19.24    18.48    
 18.08    17.96    17.86    17.73    17.58    17.35    17.01    16.31    14.82    12.54    
 9.33     5.54     2.39     2.25     2.31     2.39     2.47     2.54     2.64     2.74     
 2.86     2.99     3.13     3.29     3.47     3.65     3.86     4.08     4.31     4.56     
 4.81     5.08     5.37     5.66     5.98     6.31     6.65     7.00     7.37     7.74     
 8.13     8.52     8.94     9.34     9.75     10.17    10.64    11.15    11.65    12.19    
 12.79    13.49    14.24    15.05    15.95    16.96    18.06    19.27    20.57    22.04    
 23.63    25.37    27.41    29.65    32.22    35.18    38.67    42.64    47.04    52.09    
 57.93    64.26    71.20    78.75    86.92    95.63    104.57   113.91   123.94   133.96   
 143.89   153.81   163.29   172.99   182.31   191.39   200.03   207.96   215.62   222.57   
 228.68   234.25   238.90   242.79   245.66   247.46   248.21   248.02   246.55   244.33   
 241.22   237.31   232.56   226.93   220.68   213.63   206.05   198.26   189.85   181.51   
 150.33   
320741.53 316767.41 310450.68 302060.96 291541.45 280583.29 268490.43 255177.31 240029.13 224880.96 
 209700.14 191481.35 171969.96 150883.74 129882.23 109220.26 91138.54 75795.46 63802.56 54094.99 
 46197.09 39759.73 34725.08 30752.15 27413.93 24859.99 22310.13 20102.26 18052.55 16107.27 
 14226.57 12506.81 10963.95 9622.31  8485.12  7560.70  6855.35  6239.35  5732.21  5328.51  
 4970.70  4654.58  4395.30  4217.79  4029.43  3850.96  3645.19  3415.35  3169.25  2904.67  
 2666.14  2427.96  2216.98  2022.04  1838.11  1667.68  1509.59  1360.98  1227.28  1110.77  
 1005.16  908.73   815.55   729.30   645.75   573.77   507.56   448.64   393.25   344.34   
 301.14   267.34   233.55   199.86   174.11   152.53   134.02   118.37   103.83   92.05    
 80.49    69.57    56.78    7.47     2.51     2.10     1.76     1.58     1.44     1.36     
 1.26     1.17     1.16     1.16     1.17     1.19     1.21     1.24     1.26     1.29     
 1.33     1.36     1.40     1.44     1.46     1.51     1.56     1.60     1.65     1.70     
 1.76     1.82     1.87     1.94     2.00     2.07     2.16     2.24     2.32     2.42     
 2.53     2.64     2.76     2.89     3.04     3.22     3.40     3.62     3.84     4.10     
 4.39     4.72     5.09     5.52     6.03     6.59     7.24     7.98     8.80     9.71     
 10.77    11.92    13.15    14.52    15.98    17.56    19.20    20.87    22.60    24.39    
 26.26    28.12    30.05    32.05    34.09    36.21    38.48    40.91    43.44    46.07    
 48.79    51.70    54.82    58.20    61.83    65.84    70.16    75.46    80.77    87.14    
 94.44    102.59   111.28   120.53   130.18   140.14   150.38   160.58   170.45   179.77   
 150.33   
320741.53 316427.98 309686.43 301638.29 291746.53 280778.08 269966.72 258456.13 245497.91 231045.99 
 215216.87 197816.75 179272.70 159822.42 139506.81 119574.55 101665.69 83771.74 70206.16 59748.73 
 51772.27 45869.98 41123.08 37375.40 34185.39 31206.42 28700.73 26318.23 23969.03 21717.41 
 19455.06 17391.09 15457.41 13668.97 12115.47 10913.67 9714.76  8843.76  8163.31  7646.42  
 7229.35  6886.20  6582.82  6315.70  6082.47  5874.79  5672.07  5481.24  5296.44  5113.65  
 4919.95  4710.65  4492.92  4260.12  4017.71  3782.31  3555.67  3348.05  3163.50  2981.90  
 2806.65  2645.72  2494.71  2346.16  2213.41  2076.48  1944.63  1816.38  1690.93  1571.42  
 1459.87  1355.09  1251.83  1158.09  1064.43  970.78   889.13   812.73   739.57   675.32   
 617.39   563.38   516.05   473.56   436.25   404.56   376.65   351.00   332.54   313.04   
 294.43   277.40   263.23   249.34   236.77   225.30   213.56   202.36   193.42   183.40   
 174.64   166.37   158.90   151.91   144.79   137.85   131.64   126.07   120.51   114.95   
 109.86   105.01   99.72    94.77    89.70    85.09    80.95    76.53    72.40    67.71    
 63.64    59.79    55.69    51.18    46.87    42.47    38.11    31.97    25.68    18.90    
 13.86    10.70    8.95     7.41     5.76     4.85     5.03     5.52     6.21     6.99     
 7.89     8.88     9.96     11.13    12.44    13.83    15.30    16.82    18.45    20.14    
 21.87    23.59    25.34    27.13    28.91    30.67    32.52    34.40    36.28    38.21    
 40.21    42.29    44.45    46.78    49.25    52.02    55.25    59.15    63.99    69.72    
 76.55    84.83    93.90    103.81   114.44   125.76   137.46   149.51   161.17   172.45   
 150.33   
320741.53 316583.12 310418.50 302524.49 293263.29 283600.89 272957.92 261646.79 246776.11 231905.40 
 216996.08 198498.80 179102.13 160035.70 140593.67 121970.56 103850.78 86846.14 72620.46 62343.98 
 55123.97 49656.11 45225.73 41655.05 38371.14 35319.38 32485.28 29638.15 26998.57 24476.50 
 21955.57 19548.95 17280.59 15279.52 13534.93 12033.32 10732.48 9669.25  8854.90  8274.20  
 7845.15  7533.68  7271.61  7055.89  6853.98  6651.93  6471.99  6293.84  6133.35  5965.51  
 5809.97  5660.43  5485.95  5302.32  5100.72  4889.99  4674.45  4451.84  4232.54  3992.53  
 3769.01  3539.46  3333.38  3143.93  2960.84  2773.37  2591.92  2410.56  2234.98  2062.85  
 1903.05  1751.46  1611.60  1472.92  1347.25  1224.30  1114.80  1012.98  918.99   833.84   
 755.36   688.75   634.88   588.82   548.79   513.07   482.58   453.48   430.81   409.34   
 389.11   369.51   352.52   337.37   323.11   309.69   298.13   286.64   276.45   267.09   
 258.04   250.09   242.62   235.40   228.20   222.44   216.87   211.47   206.84   202.28   
 197.90   193.54   189.54   185.79   181.97   178.14   174.40   170.63   167.00   163.62   
 160.67   157.28   154.16   151.06   147.64   144.05   140.87   137.44   134.10   130.90   
 127.19   123.56   119.91   116.10   112.10   107.83   102.95   97.58    92.32    86.79    
 80.66    74.43    66.75    59.74    55.86    53.26    50.70    36.66    20.74    17.47    
 17.50    18.90    20.78    22.78    24.81    26.85    28.91    30.96    33.09    35.22    
 37.39    39.46    41.51    43.61    45.71    47.89    50.30    53.14    56.39    60.56    
 65.82    72.61    80.68    90.11    101.04   112.61   125.78   139.42   153.29   166.80   
 150.33   
320741.53 316244.59 309495.29 301471.32 292651.94 283184.59 272197.63 258882.97 241076.38 219110.05 
 194517.17 172373.27 152173.78 134227.99 117910.30 103849.45 89805.71 78531.43 68843.47 61180.35 
 55084.01 50115.05 45602.96 41337.89 37039.56 32941.04 28895.13 25060.25 21228.26 17776.18 
 15079.94 13205.85 11931.11 11157.88 10388.98 9901.57  9488.47  9102.21  8756.88  8431.55  
 8135.01  7849.47  7593.82  7351.96  7146.78  6946.29  6753.79  6587.61  6418.46  6236.55  
 6047.89  5856.29  5665.85  5500.05  5317.40  5124.66  4928.65  4733.80  4536.18  4329.39  
 4122.53  3908.29  3706.12  3501.68  3300.40  3100.35  2899.90  2699.05  2503.77  2305.75  
 2120.44  1953.52  1790.77  1632.38  1484.74  1345.95  1215.58  1108.18  1000.98  912.30   
 835.67   767.37   704.53   651.81   605.73   565.06   526.80   496.04   472.84   451.46   
 430.35   410.91   393.63   378.42   365.50   353.78   343.58   334.42   326.81   319.00   
 311.87   305.74   300.08   294.81   289.97   285.39   281.34   277.41   274.00   270.08   
 266.62   263.04   260.18   257.29   254.14   251.21   248.19   245.22   242.32   239.26   
 235.64   232.06   228.47   224.93   221.40   217.98   214.28   210.22   206.52   202.55   
 198.45   194.65   190.21   185.81   181.36   177.04   172.77   168.45   163.84   159.00   
 154.23   149.35   144.94   140.28   135.75   131.26   123.05   114.82   107.65   98.99    
 93.87    88.80    79.93    76.76    74.78    69.86    38.75    33.32    32.51    32.73    
 34.39    36.37    38.91    41.63    44.38    47.17    49.86    52.49    55.39    58.58    
