IESNA:LM-63-2002
[TEST] 1
[TESTLAB] AOK
[TESTDATE] 2022-05-19
[ISSUEDATE] 2022-05-19 19:48:05
[NEARFIELD] 
[LAMPPOSITION] 0,0
[OTHER] EVERFINE GO-2000A_V1 SYSTEM
[MANUFAC] AOK
[LUMCAT] A
[LUMINAIRE] AOK-800WiSF-HV-S5-00-5070-30D-P
[LAMPCAT] B
[LAMP] 5050
[BALLAST] E
[BALLASTCAT] F
[OTHER] 
[OTHER] Gamma(deg)    Fz(lm)      Ft(lm)     %Lum    %Lamp
[OTHER]   0- 10     23317.87    23317.87    20.14    20.14
[OTHER]  10- 20     37674.38    60992.25    52.67    52.67
[OTHER]  20- 30     22287.29    83279.54    71.91    71.91
[OTHER]  30- 40     14057.48    97337.02    84.05    84.05
[OTHER]  40- 50      8504.22   105841.24    91.40    91.40
[OTHER]  50- 60      4678.18   110519.42    95.44    95.44
[OTHER]  60- 70      2589.10   113108.51    97.67    97.67
[OTHER]  70- 80      1272.60   114381.11    98.77    98.77
[OTHER]  80- 90       532.72   114913.84    99.23    99.23
[OTHER]  90-100       254.92   115168.75    99.45    99.45
[OTHER] 100-110       163.64   115332.39    99.59    99.59
[OTHER] 110-120       122.71   115455.10    99.70    99.70
[OTHER] 120-130        92.85   115547.95    99.78    99.78
[OTHER] 130-140        68.72   115616.67    99.84    99.84
[OTHER] 140-150        56.28   115672.95    99.89    99.89
[OTHER] 150-160        57.82   115730.77    99.94    99.94
[OTHER] 160-170        53.50   115784.27    99.98    99.98
[OTHER] 170-180        21.06   115805.33   100.00   100.00
[OTHER] 
TILT=NONE
1 1.1581e+005 1 181 25 1 2 0.150 0.200 0.000
1.000 1 805.782
0.0    1.0    2.0    3.0    4.0    5.0    6.0    7.0    8.0    9.0    
 10.0   11.0   12.0   13.0   14.0   15.0   16.0   17.0   18.0   19.0   
 20.0   21.0   22.0   23.0   24.0   25.0   26.0   27.0   28.0   29.0   
 30.0   31.0   32.0   33.0   34.0   35.0   36.0   37.0   38.0   39.0   
 40.0   41.0   42.0   43.0   44.0   45.0   46.0   47.0   48.0   49.0   
 50.0   51.0   52.0   53.0   54.0   55.0   56.0   57.0   58.0   59.0   
 60.0   61.0   62.0   63.0   64.0   65.0   66.0   67.0   68.0   69.0   
 70.0   71.0   72.0   73.0   74.0   75.0   76.0   77.0   78.0   79.0   
 80.0   81.0   82.0   83.0   84.0   85.0   86.0   87.0   88.0   89.0   
 90.0   91.0   92.0   93.0   94.0   95.0   96.0   97.0   98.0   99.0   
 100.0  101.0  102.0  103.0  104.0  105.0  106.0  107.0  108.0  109.0  
 110.0  111.0  112.0  113.0  114.0  115.0  116.0  117.0  118.0  119.0  
 120.0  121.0  122.0  123.0  124.0  125.0  126.0  127.0  128.0  129.0  
 130.0  131.0  132.0  133.0  134.0  135.0  136.0  137.0  138.0  139.0  
 140.0  141.0  142.0  143.0  144.0  145.0  146.0  147.0  148.0  149.0  
 150.0  151.0  152.0  153.0  154.0  155.0  156.0  157.0  158.0  159.0  
 160.0  161.0  162.0  163.0  164.0  165.0  166.0  167.0  168.0  169.0  
 170.0  171.0  172.0  173.0  174.0  175.0  176.0  177.0  178.0  179.0  
 180.0  
0.0    15.0   30.0   45.0   60.0   75.0   90.0   105.0  120.0  135.0  
 150.0  165.0  180.0  195.0  210.0  225.0  240.0  255.0  270.0  285.0  
 300.0  315.0  330.0  345.0  360.0  
267472.19 263902.36 260458.36 260065.70 259745.06 242312.48 225766.01 211921.69 189647.03 176486.82 
 157224.06 137730.47 114592.84 104892.45 95339.26 88609.54 81374.57 73695.83 54388.12 41519.05 
 30303.73 22630.08 13862.75 7495.36  1155.08  743.09   394.74   46.38    30.98    25.36    
 22.35    19.41    17.84    16.54    14.88    13.07    11.78    10.66    9.81     9.17     
 8.71     8.48     8.22     7.83     7.40     7.08     6.79     6.44     6.17     5.95     
 5.86     5.64     5.49     5.24     5.24     5.06     4.97     4.89     4.82     4.78     
 4.76     4.76     4.71     4.69     4.69     4.68     4.67     4.66     4.65     4.64     
 4.61     4.58     4.53     4.47     4.42     4.35     4.28     4.21     4.16     4.12     
 4.08     4.06     4.04     4.02     4.00     4.00     4.01     4.08     4.18     4.32     
 4.45     4.60     4.76     4.94     5.12     5.33     5.55     5.80     6.08     6.40     
 6.74     7.10     7.48     7.89     8.33     8.79     9.28     9.78     10.30    10.91    
 11.55    12.25    13.01    13.83    14.71    15.66    16.65    17.74    18.92    20.19    
 21.52    22.94    24.48    26.13    27.89    29.78    31.86    34.14    36.55    39.10    
 41.84    44.81    48.01    51.34    54.89    58.69    62.82    67.27    72.01    77.12    
 82.55    88.50    95.09    102.21   109.87   118.14   126.99   136.15   145.78   156.07   
 166.62   177.31   187.85   198.49   209.33   220.00   229.92   239.85   249.78   258.66   
 266.74   274.26   281.19   288.00   293.73   298.24   301.36   303.21   303.75   302.76   
 299.90   295.94   291.62   286.53   280.99   273.77   265.48   256.20   246.08   234.52   
 221.34   
267472.19 263576.63 260047.54 257832.98 256957.94 243266.93 229575.91 215865.91 200240.62 181177.77 
 163914.63 146776.55 129901.04 103698.16 94041.01 86427.11 78656.87 71014.36 63453.77 46400.32 
 35344.93 27331.97 19327.13 12336.90 7878.63  4250.42  653.21   436.33   316.27   196.82   
 138.70   91.87    103.51   100.24   53.90    33.41    25.38    21.21    18.92    17.27    
 16.12    15.29    14.36    13.38    12.42    11.61    10.96    10.17    9.19     8.55     
 7.97     7.61     7.40     7.12     6.86     6.64     6.54     6.41     6.25     6.08     
 5.90     5.75     5.61     5.49     5.40     5.30     5.18     5.07     4.93     4.79     
 4.66     4.54     4.42     4.32     4.22     4.13     4.04     3.94     3.87     3.80     
 3.74     3.73     3.73     3.74     3.75     3.79     3.85     3.93     4.02     4.13     
 4.27     4.41     4.55     4.72     4.91     5.13     5.36     5.60     5.88     6.19     
 6.53     6.88     7.25     7.64     8.07     8.51     9.01     9.51     10.06    10.62    
 11.23    11.90    12.65    13.45    14.27    15.20    16.22    17.29    18.38    19.58    
 20.88    22.32    23.89    25.53    27.26    29.15    31.22    33.44    35.80    38.29    
 40.98    43.83    46.88    50.12    53.60    57.31    61.36    65.70    70.26    75.21    
 80.79    86.72    93.11    100.17   107.81   115.99   125.36   134.72   144.32   154.73   
 165.19   176.12   186.75   197.60   208.41   219.04   229.45   239.12   248.45   257.29   
 265.53   273.34   280.67   287.81   293.44   298.32   301.69   303.37   303.63   302.70   
 300.31   297.09   293.31   288.44   282.96   276.23   268.28   259.40   249.46   238.55   
 221.34   
267472.19 263661.55 260168.22 256403.66 254716.45 251919.94 242133.53 218470.43 204039.50 189252.74 
 168384.30 155483.01 134868.81 118443.42 99537.36 80604.32 72393.72 64861.09 57108.70 50105.12 
 43537.58 32204.43 25524.52 20270.27 14604.17 11544.59 8407.91  5270.13  1371.41  903.25   
 478.25   290.96   205.54   168.66   136.09   109.64   83.26    70.27    56.41    45.83    
 40.21    35.03    31.16    27.60    25.27    23.68    21.71    20.08    18.52    17.12    
 14.72    13.13    12.36    11.40    10.25    9.21     8.92     8.91     8.85     8.57     
 8.22     7.79     7.46     7.22     7.01     6.81     6.63     6.44     6.26     6.08     
 5.87     5.63     5.41     5.20     4.99     4.77     4.55     4.36     4.17     4.01     
 3.87     3.75     3.68     3.68     3.69     3.77     3.85     3.96     4.08     4.21     
 4.34     4.50     4.67     4.88     5.09     5.31     5.56     5.83     6.12     6.43     
 6.76     7.12     7.49     7.88     8.32     8.78     9.27     9.76     10.30    10.90    
 11.55    12.25    12.98    13.78    14.67    15.59    16.58    17.62    18.82    20.10    
 21.47    22.89    24.45    26.15    27.93    29.78    31.77    33.95    36.28    38.74    
 41.34    44.07    46.96    50.10    53.55    57.26    61.14    65.34    69.85    74.82    
 80.28    86.14    92.51    99.52    107.17   115.25   123.76   133.04   142.84   152.92   
 163.16   173.79   184.70   195.46   206.33   216.94   227.16   237.80   248.44   257.32   
 266.32   274.80   282.70   289.46   295.27   299.78   303.17   305.13   306.39   305.68   
 303.75   301.03   297.92   293.83   288.23   281.41   273.34   264.18   254.59   243.36   
 221.34   
267472.19 263962.92 260801.35 257116.65 251823.74 245996.34 237426.22 228856.12 220183.14 197853.63 
 182937.02 167194.75 148595.98 131696.97 115983.99 98298.65 84164.70 72416.94 56263.23 47106.42 
 40916.82 35970.57 31880.79 28697.66 24956.58 21215.50 17475.13 13824.06 11527.93 8679.85  
 6986.56  5065.37  3629.39  2193.40  767.22   513.68   352.12   269.27   186.85   150.91   
 121.20   98.69    82.02    70.06    60.00    51.93    44.67    39.94    35.90    31.95    
 29.06    26.99    25.16    23.19    20.19    16.76    13.15    12.58    12.09    11.71    
 11.11    10.57    10.09    9.65     9.26     8.88     8.48     8.17     7.88     7.56     
 7.25     6.96     6.66     6.37     6.04     5.70     5.34     4.96     4.60     4.27     
 3.97     3.71     3.53     3.49     3.52     3.60     3.72     3.84     3.97     4.12     
 4.28     4.45     4.63     4.84     5.07     5.31     5.55     5.82     6.10     6.43     
 6.77     7.11     7.49     7.90     8.34     8.82     9.33     9.85     10.39    10.99    
 11.64    12.35    13.11    13.89    14.74    15.71    16.73    17.85    19.00    20.20    
 21.51    22.96    24.50    26.11    27.79    29.59    31.53    33.62    35.81    38.12    
 40.60    43.23    46.09    49.09    52.27    55.71    59.51    63.62    67.96    72.70    
 78.08    83.85    90.12    96.98    104.41   112.48   121.64   130.81   140.32   150.53   
 160.90   171.70   182.38   193.49   204.47   215.41   226.33   236.83   247.08   256.92   
 266.00   274.43   281.87   288.57   294.24   298.96   302.86   305.09   306.16   306.28   
 305.32   303.29   300.36   296.21   290.82   283.87   275.52   266.50   256.63   245.69   
 221.34   
267472.19 264559.84 261485.29 257160.31 250323.89 242506.80 235476.63 228067.03 220029.15 210424.75 
 199008.51 183827.99 163378.33 144703.88 128429.81 113480.31 98544.36 83608.41 71408.69 62135.83 
 51048.60 44290.14 38420.40 33733.32 29725.98 24992.94 22428.25 20371.76 18443.09 16663.89 
 15120.13 13587.02 12026.75 10309.57 8590.59  7124.79  5575.22  4456.04  3560.13  2862.47  
 2198.48  1570.41  1084.49  782.95   483.57   334.33   251.07   199.55   157.64   128.10   
 109.78   91.58    81.77    70.08    60.13    53.01    47.39    41.75    36.56    33.15    
 29.96    26.73    23.65    18.64    15.66    14.31    13.59    12.85    11.98    11.24    
 10.63    10.00    9.47     8.99     8.43     7.93     7.45     6.90     6.28     5.62     
 5.02     4.47     4.00     3.81     3.80     3.90     4.02     4.16     4.31     4.47     
 4.64     4.82     5.02     5.24     5.46     5.70     5.97     6.27     6.57     6.89     
 7.23     7.59     8.00     8.41     8.84     9.33     9.81     10.35    10.93    11.57    
 12.24    12.97    13.72    14.56    15.47    16.44    17.42    18.46    19.61    20.88    
 22.19    23.58    25.04    26.59    28.28    30.05    31.93    33.95    36.14    38.45    
 40.85    43.41    46.13    49.01    52.24    55.76    59.64    63.72    68.25    73.13    
 78.46    84.56    91.32    98.62    106.39   114.63   123.20   132.83   142.96   153.34   
 163.81   174.32   185.20   196.34   207.17   217.76   228.47   239.23   249.98   259.46   
 268.12   276.04   283.34   289.63   295.31   300.52   304.20   306.79   308.10   308.41   
 308.20   305.86   302.21   297.51   291.93   285.23   277.71   269.34   259.97   249.79   
 221.34   
267472.19 265617.37 263164.51 259239.84 252182.85 243842.20 235830.22 227807.08 218657.64 207498.45 
 195598.98 183340.99 168774.07 154684.17 139412.77 125420.90 111556.12 98772.46 87010.62 76951.93 
 68136.57 60611.12 53830.43 47484.54 43206.85 39526.37 36351.45 32631.18 29767.40 27240.10 
 24863.76 22489.38 20375.83 18656.54 17020.11 15407.40 13888.99 12619.64 11445.91 10275.90 
 9246.90  8300.65  7414.58  6610.79  5855.47  5223.29  4560.58  3981.67  3447.94  2971.24  
 2494.53  2018.55  1617.32  1257.88  973.70   738.04   581.97   457.84   375.08   307.16   
 252.43   197.84   157.99   127.63   105.97   88.51    73.95    60.90    51.18    43.71    
 37.47    32.56    28.37    23.78    18.05    16.49    15.11    13.42    12.02    10.80    
 9.41     7.68     5.64     3.96     3.47     3.54     3.65     3.75     3.88     4.02     
 4.17     4.33     4.51     4.71     4.94     5.17     5.42     5.69     5.98     6.27     
 6.58     6.90     7.26     7.63     8.05     8.50     8.99     9.50     10.06    10.67    
 11.31    11.98    12.73    13.52    14.36    15.26    16.24    17.24    18.28    19.40    
 20.62    21.94    23.40    24.89    26.45    28.16    30.03    32.01    34.14    36.40    
 38.80    41.38    44.12    47.05    50.22    53.69    57.45    61.51    65.75    70.54    
 76.01    81.88    88.31    95.36    103.03   111.40   120.93   130.45   140.16   150.68   
 161.20   172.19   183.09   194.21   205.30   216.28   227.23   237.57   247.74   257.60   
 266.66   275.37   283.30   290.72   297.41   303.00   307.37   310.67   312.85   313.91   
 313.64   312.00   309.07   305.11   300.08   294.06   287.06   279.31   270.76   261.34   
 221.34   
267472.19 266905.54 265966.12 263677.70 258144.15 250271.00 242630.40 234979.22 226478.73 215318.95 
 202924.92 190998.87 176134.21 161634.15 146048.35 130978.31 117218.11 103841.34 91955.86 81345.35 
 72423.45 65454.65 59794.59 55015.85 50561.70 46717.01 43390.55 40256.88 37316.13 34580.32 
 32056.93 29865.77 27797.09 26032.51 24267.93 22505.49 20932.09 19489.57 18091.83 16838.22 
 15725.58 14570.82 13472.55 12528.24 11477.64 10579.34 9725.09  8886.95  8119.42  7437.63  
 6825.88  6253.52  5743.17  5273.30  4863.75  4489.13  4140.64  3825.73  3524.07  3255.39  
 2985.53  2751.57  2517.61  2283.94  2072.72  1879.66  1702.43  1534.24  1378.85  1229.24  
 1095.42  967.16   848.49   741.35   642.06   551.25   465.96   388.89   321.84   270.67   
 219.51   168.51   132.37   102.67   69.39    32.09    7.90     4.71     3.72     3.27     
 2.94     2.69     2.50     2.53     2.46     1.99     1.56     1.66     1.71     1.71     
 1.68     1.70     1.75     1.81     1.88     1.91     1.92     2.02     2.17     2.17     
 2.28     2.45     2.50     2.63     2.78     2.95     3.20     3.35     3.51     3.67     
 3.87     4.08     4.33     4.62     4.93     5.27     5.65     6.07     6.55     7.06     
 7.60     8.21     8.87     9.55     10.28    11.10    12.01    13.04    14.16    15.34    
 16.68    18.17    19.83    21.70    23.69    25.92    28.33    30.89    33.65    36.61    
 39.72    43.01    46.51    50.27    54.26    58.51    63.01    67.82    72.91    78.11    
 83.56    89.12    94.96    101.13   107.21   113.60   120.44   128.02   135.60   143.45   
 151.78   160.46   169.28   178.80   188.66   199.09   209.36   219.75   230.00   239.73   
 221.34   
267472.19 267796.25 267679.12 266081.91 261559.11 254318.94 247596.92 239844.45 231324.92 221443.22 
 209715.28 196774.77 183106.04 168354.10 152875.13 137869.47 124182.37 112389.26 100614.86 88840.46 
 80011.87 72855.46 67108.28 62222.09 57972.90 54003.98 50412.15 47218.87 44214.83 41344.01 
 38761.10 36427.82 34084.86 31952.96 29970.35 28144.46 26559.06 24943.68 23483.62 22084.41 
 20761.43 19558.62 18245.45 17070.65 15988.73 14951.46 13902.61 12929.41 12020.62 11223.08 
 10426.38 9695.22  9058.73  8483.29  7985.52  7511.48  7038.86  6619.17  6248.03  5883.74  
 5530.82  5187.01  4866.55  4577.78  4293.36  4017.05  3750.51  3507.08  3265.06  3036.38  
 2825.20  2633.96  2447.84  2261.64  2087.96  1933.36  1790.66  1646.85  1513.93  1393.23  
 1283.94  1190.45  1097.07  1003.70  918.78   842.94   772.35   708.81   653.47   606.03   
 557.18   510.92   468.34   428.93   392.63   358.92   328.23   302.35   279.04   253.53   
 231.43   212.02   194.68   178.52   162.73   147.85   133.28   120.29   107.30   96.29    
 86.22    77.63    68.88    60.57    51.79    43.25    35.84    30.33    17.31    5.69     
 3.97     3.87     3.92     4.11     4.34     4.58     4.89     5.23     5.60     6.11     
 6.83     7.67     8.59     9.82     10.71    10.34    10.51    11.10    11.83    12.68    
 13.79    14.91    16.25    18.45    19.78    21.48    23.32    25.24    27.44    29.93    
 32.62    34.84    36.80    40.06    43.57    47.20    51.08    55.19    59.58    64.16    
 69.05    74.21    79.58    85.32    91.31    97.58    104.02   110.82   118.04   127.03   
 134.79   142.70   152.25   161.98   172.05   182.83   193.95   205.11   216.21   227.67   
 221.34   
267472.19 268718.44 269833.41 269891.72 268047.86 263480.26 257319.92 250940.96 243015.54 235058.32 
 224074.60 211918.65 198075.75 182434.72 166405.68 151196.26 136719.67 122712.28 109707.47 98406.06 
 89154.66 81699.14 75818.46 70591.12 65807.00 61530.31 57803.28 54170.94 50812.06 47718.42 
 44871.35 42470.10 40043.02 37808.29 35698.98 33777.41 31927.70 30103.60 28427.41 26824.43 
 25357.21 23889.98 22424.17 21094.21 19762.12 18457.50 17266.97 16146.31 15105.31 14054.37 
 13115.13 12219.04 11390.95 10560.41 9820.83  9159.15  8575.14  8049.80  7577.56  7131.26  
 6730.47  6329.22  5955.49  5592.28  5265.50  4950.52  4652.13  4358.73  4078.60  3794.97  
 3523.12  3259.24  3021.43  2807.40  2593.37  2379.62  2193.39  2017.24  1857.06  1704.03  
 1565.74  1441.96  1333.10  1231.96  1137.69  1051.14  972.60   902.62   839.81   789.94   
 735.45   683.13   635.42   591.23   552.12   516.88   485.27   457.10   429.48   406.43   
 386.92   369.56   354.47   340.09   327.64   316.54   306.02   296.90   288.44   280.34   
 272.87   268.14   260.90   253.60   245.44   237.27   229.09   220.21   211.99   202.65   
 193.70   184.17   174.25   164.34   154.48   144.05   133.83   122.90   110.62   97.09    
 80.02    55.10    34.59    24.07    20.96    20.48    11.98    7.13     7.51     8.14     
 8.89     9.73     10.71    11.84    13.10    14.52    16.11    17.93    20.18    22.73    
 25.54    29.44    43.37    36.66    34.55    37.67    40.96    44.49    48.30    52.35    
 56.62    61.12    65.92    71.04    76.38    82.09    88.09    94.60    102.17   108.97   
 116.93   125.82   135.47   145.82   156.13   166.58   178.19   189.58   201.60   213.79   
 221.34   
267472.19 269762.80 271935.39 273548.40 273879.80 272130.30 267493.60 261075.96 253246.94 244289.03 
 234085.23 221996.44 207817.69 192504.60 176504.12 160258.82 144931.76 130605.13 117284.10 107155.81 
 97057.54 89886.41 84095.97 78675.94 74000.30 69569.96 65572.20 61791.49 58284.60 54879.91 
 51603.58 48666.91 45964.36 43311.70 40778.99 38498.41 36307.59 34205.20 32129.11 30194.76 
 28273.77 26317.08 24459.58 22682.65 21006.04 19561.40 18146.64 16855.69 15701.30 14675.61 
 13717.32 12808.64 11984.03 11231.84 10480.32 9820.36  9208.87  8668.50  8164.68  7689.45  
 7190.59  6724.36  6299.05  5915.71  5530.35  5165.55  4818.71  4478.89  4140.75  3834.95  
 3557.30  3304.93  3057.48  2816.65  2596.87  2388.19  2188.49  2003.81  1829.76  1673.58  
 1531.29  1405.28  1285.47  1191.25  1097.23  1003.20  924.42   850.03   793.99   748.15   
 695.32   645.03   601.69   564.80   532.70   505.24   480.30   460.08   442.47   426.75   
 413.31   401.24   391.00   381.26   372.00   363.05   355.17   348.06   340.74   333.67   
 326.13   319.37   313.18   306.65   300.33   294.67   289.18   283.76   278.23   273.45   
 268.32   264.27   260.19   255.12   248.85   242.89   237.10   231.31   224.58   218.43   
 209.60   200.43   191.09   182.32   172.85   163.37   153.86   142.82   130.98   116.39   
 101.78   76.29    27.65    17.20    15.61    14.89    13.63    14.88    16.72    18.78    
 21.02    23.40    25.97    28.69    31.53    34.57    38.04    41.64    45.85    61.35    
 58.34    56.15    60.68    65.66    71.01    76.64    82.43    88.65    95.15    101.96   
