IESNA:LM-63-2002
[TEST] 1
[TESTLAB] AOK
[TESTDATE] 2022-05-19
[ISSUEDATE] 2022-05-19 20:28:52
[NEARFIELD] 
[LAMPPOSITION] 0,0
[OTHER] EVERFINE GO-2000A_V1 SYSTEM
[MANUFAC] AOK
[LUMCAT] A
[LUMINAIRE] AOK-800WiSF-HV-S5-00-5070-30D-P
[LAMPCAT] B
[LAMP] 5050
[BALLAST] E
[BALLASTCAT] F
[OTHER] 
[OTHER] Gamma(deg)    Fz(lm)      Ft(lm)     %Lum    %Lamp
[OTHER]   0- 10     23367.12    23367.12    20.25    20.25
[OTHER]  10- 20     37680.30    61047.42    52.91    52.91
[OTHER]  20- 30     22277.46    83324.88    72.22    72.22
[OTHER]  30- 40     13896.42    97221.30    84.26    84.26
[OTHER]  40- 50      8368.35   105589.65    91.51    91.51
[OTHER]  50- 60      4598.85   110188.50    95.50    95.50
[OTHER]  60- 70      2543.19   112731.69    97.70    97.70
[OTHER]  70- 80      1246.15   113977.84    98.78    98.78
[OTHER]  80- 90       522.22   114500.06    99.24    99.24
[OTHER]  90-100       250.53   114750.59    99.45    99.45
[OTHER] 100-110       161.91   114912.50    99.59    99.59
[OTHER] 110-120       121.34   115033.84    99.70    99.70
[OTHER] 120-130        91.64   115125.48    99.78    99.78
[OTHER] 130-140        67.46   115192.94    99.84    99.84
[OTHER] 140-150        55.01   115247.95    99.89    99.89
[OTHER] 150-160        57.41   115305.36    99.94    99.94
[OTHER] 160-170        53.62   115358.98    99.98    99.98
[OTHER] 170-180        21.30   115380.28   100.00   100.00
[OTHER] 
TILT=NONE
1 1.1538e+005 1 181 25 1 2 0.150 0.200 0.000
1.000 1 797.56
0.0    1.0    2.0    3.0    4.0    5.0    6.0    7.0    8.0    9.0    
 10.0   11.0   12.0   13.0   14.0   15.0   16.0   17.0   18.0   19.0   
 20.0   21.0   22.0   23.0   24.0   25.0   26.0   27.0   28.0   29.0   
 30.0   31.0   32.0   33.0   34.0   35.0   36.0   37.0   38.0   39.0   
 40.0   41.0   42.0   43.0   44.0   45.0   46.0   47.0   48.0   49.0   
 50.0   51.0   52.0   53.0   54.0   55.0   56.0   57.0   58.0   59.0   
 60.0   61.0   62.0   63.0   64.0   65.0   66.0   67.0   68.0   69.0   
 70.0   71.0   72.0   73.0   74.0   75.0   76.0   77.0   78.0   79.0   
 80.0   81.0   82.0   83.0   84.0   85.0   86.0   87.0   88.0   89.0   
 90.0   91.0   92.0   93.0   94.0   95.0   96.0   97.0   98.0   99.0   
 100.0  101.0  102.0  103.0  104.0  105.0  106.0  107.0  108.0  109.0  
 110.0  111.0  112.0  113.0  114.0  115.0  116.0  117.0  118.0  119.0  
 120.0  121.0  122.0  123.0  124.0  125.0  126.0  127.0  128.0  129.0  
 130.0  131.0  132.0  133.0  134.0  135.0  136.0  137.0  138.0  139.0  
 140.0  141.0  142.0  143.0  144.0  145.0  146.0  147.0  148.0  149.0  
 150.0  151.0  152.0  153.0  154.0  155.0  156.0  157.0  158.0  159.0  
 160.0  161.0  162.0  163.0  164.0  165.0  166.0  167.0  168.0  169.0  
 170.0  171.0  172.0  173.0  174.0  175.0  176.0  177.0  178.0  179.0  
 180.0  
0.0    15.0   30.0   45.0   60.0   75.0   90.0   105.0  120.0  135.0  
 150.0  165.0  180.0  195.0  210.0  225.0  240.0  255.0  270.0  285.0  
 300.0  315.0  330.0  345.0  360.0  
267828.25 264061.42 260500.25 258959.32 258627.07 249819.86 230714.67 214205.46 197453.55 184571.01 
 160825.06 144226.62 124587.09 111009.82 97499.16 90886.02 83948.30 76423.48 61538.72 47406.94 
 36353.54 23915.07 15445.98 10298.46 8224.08  6183.04  4142.01  2100.98  59.95    25.99    
 22.63    20.22    18.21    16.91    15.23    13.54    12.17    11.06    10.04    9.40     
 8.86     8.51     8.31     7.92     7.45     7.12     6.78     6.50     6.19     5.90     
 5.81     5.68     5.49     5.25     5.16     5.06     4.91     4.86     4.78     4.74     
 4.70     4.69     4.65     4.62     4.62     4.62     4.62     4.62     4.61     4.60     
 4.57     4.54     4.50     4.46     4.40     4.34     4.27     4.20     4.14     4.10     
 4.06     4.05     4.03     4.01     4.00     3.98     3.98     4.04     4.11     4.24     
 4.37     4.51     4.68     4.85     5.03     5.23     5.45     5.68     5.94     6.25     
 6.58     6.94     7.31     7.69     8.12     8.59     9.07     9.56     10.05    10.63    
 11.27    11.94    12.67    13.45    14.31    15.24    16.21    17.23    18.36    19.61    
 20.91    22.28    23.74    25.35    27.06    28.88    30.86    33.06    35.41    37.95    
 40.61    43.40    46.45    49.77    53.22    56.90    60.84    65.13    69.73    74.66    
 79.94    85.64    91.92    98.82    106.25   114.27   122.80   131.80   141.28   151.30   
 161.78   172.17   182.69   193.50   204.06   214.51   224.71   235.06   245.41   254.11   
 262.36   270.08   277.56   284.46   290.62   295.69   299.46   301.79   302.89   302.56   
 300.31   296.66   292.61   287.79   282.56   275.82   267.81   259.06   249.17   238.28   
 225.65   
267828.25 263810.84 260272.00 257305.41 256403.83 244186.23 231968.62 219729.20 205255.15 182453.08 
 169340.20 150862.20 131767.77 110307.96 95429.57 87844.55 80084.85 72611.29 64900.43 49637.45 
 38802.37 29377.09 19972.84 13164.49 9372.56  5057.24  778.56   493.73   352.07   211.22   
 151.19   102.45   93.41    105.59   65.23    37.12    26.96    21.98    19.25    17.58    
 16.17    15.34    14.48    13.50    12.57    11.72    11.09    10.38    9.39     8.64     
 8.06     7.66     7.41     7.13     6.90     6.62     6.52     6.42     6.27     6.09     
 5.92     5.78     5.62     5.50     5.40     5.30     5.19     5.08     4.94     4.81     
 4.67     4.55     4.43     4.33     4.24     4.13     4.05     3.95     3.87     3.80     
 3.79     3.77     3.76     3.74     3.73     3.77     3.83     3.89     3.98     4.09     
 4.23     4.36     4.51     4.66     4.85     5.06     5.29     5.53     5.80     6.11     
 6.43     6.77     7.14     7.53     7.94     8.39     8.86     9.37     9.90     10.46    
 11.06    11.71    12.44    13.22    14.02    14.92    15.92    16.99    18.06    19.24    
 20.51    21.92    23.44    25.05    26.74    28.62    30.62    32.80    35.12    37.59    
 40.19    42.99    46.01    49.17    52.59    56.22    60.21    64.47    68.90    73.75    
 79.20    85.04    91.28    98.13    105.62   113.67   122.84   132.02   141.58   151.83   
 162.17   173.02   183.53   194.47   205.26   215.85   226.31   236.17   245.63   254.57   
 262.99   270.93   278.36   285.72   291.54   296.77   300.53   302.60   303.16   302.63   
 300.58   297.49   293.96   289.09   283.87   277.39   269.74   261.11   251.46   240.76   
 225.65   
267828.25 263932.13 260354.24 256622.58 254304.37 251575.73 246011.65 221699.34 206415.01 192106.81 
 171409.87 158923.74 136830.67 120875.92 101463.60 82013.66 73163.07 65736.83 57903.99 50889.24 
 44155.15 34701.99 26778.48 20627.20 14974.53 12550.79 9008.87  5454.86  1609.54  1046.89  
 525.48   322.13   211.80   174.32   141.02   112.46   83.96    73.04    57.75    47.05    
 41.09    35.66    31.40    28.11    25.36    23.79    21.89    20.34    18.65    17.23    
 15.10    13.20    12.45    11.54    10.41    9.28     8.90     8.89     8.87     8.60     
 8.25     7.83     7.48     7.23     7.02     6.81     6.63     6.46     6.27     6.10     
 5.89     5.64     5.43     5.22     5.00     4.78     4.56     4.37     4.18     4.01     
 3.87     3.74     3.67     3.66     3.67     3.74     3.83     3.93     4.05     4.17     
 4.31     4.47     4.64     4.83     5.05     5.28     5.51     5.77     6.06     6.38     
 6.70     7.05     7.42     7.82     8.25     8.70     9.17     9.66     10.21    10.80    
 11.44    12.12    12.86    13.64    14.50    15.43    16.39    17.45    18.61    19.86    
 21.20    22.64    24.19    25.85    27.59    29.44    31.45    33.62    35.88    38.26    
 40.82    43.52    46.51    49.68    53.03    56.56    60.41    64.64    69.22    74.15    
 79.41    85.12    91.39    98.43    106.04   114.08   122.48   131.41   141.14   151.23   
 161.53   172.06   182.89   193.71   204.59   215.22   225.49   236.17   246.85   255.75   
 264.85   273.34   281.34   288.28   294.32   299.05   302.62   304.76   306.19   305.74   
 303.89   301.26   298.14   294.22   288.95   282.17   274.13   265.13   255.65   244.45   
 225.65   
267828.25 264271.11 260945.83 257214.34 251907.53 245762.52 238006.57 230250.63 222379.46 199216.41 
 184370.63 167606.92 150715.59 132217.64 117704.16 98935.69 85496.93 72937.03 57423.36 47515.69 
 41257.97 36250.24 32116.19 28864.04 25148.29 21432.54 17720.20 14386.66 11754.94 8786.88  
 7264.32  5143.10  3697.55  2252.00  816.09   533.00   367.08   279.24   191.87   153.49   
 123.39   100.39   83.67    71.01    60.84    52.49    45.30    40.27    36.24    32.19    
 29.22    27.04    25.24    23.33    20.39    17.03    13.28    12.62    12.11    11.73    
 11.16    10.61    10.12    9.67     9.28     8.91     8.51     8.18     7.89     7.57     
 7.27     6.98     6.68     6.39     6.06     5.72     5.37     4.97     4.61     4.27     
 3.97     3.71     3.52     3.47     3.50     3.59     3.70     3.82     3.95     4.10     
 4.26     4.43     4.61     4.82     5.05     5.27     5.51     5.78     6.07     6.40     
 6.73     7.08     7.45     7.85     8.30     8.78     9.28     9.79     10.35    10.93    
 11.58    12.29    13.04    13.81    14.66    15.62    16.65    17.75    18.88    20.07    
 21.39    22.83    24.37    25.96    27.62    29.42    31.38    33.44    35.61    37.91    
 40.39    43.00    45.82    48.80    51.98    55.43    59.18    63.26    67.57    72.29    
 77.63    83.37    89.55    96.41    103.76   111.80   120.94   130.08   139.49   149.84   
 160.03   170.85   181.64   192.59   203.60   214.47   225.42   235.90   246.25   256.16   
 265.30   273.79   281.29   288.13   293.82   298.72   302.71   304.99   306.10   306.27   
 305.44   303.49   300.59   296.48   291.21   284.42   276.04   266.92   257.08   246.02   
 225.65   
267828.25 264870.30 261750.40 257338.50 250488.12 242578.03 235494.37 227913.93 219975.87 210237.29 
 199071.17 185700.84 165115.23 144996.53 129497.25 114485.79 99478.89 84472.00 71632.19 62548.55 
 51657.20 44462.90 38842.46 33860.43 30123.42 25192.91 22539.23 20474.06 18518.25 16739.24 
 15184.76 13664.22 12097.23 10435.02 8771.71  7244.74  5660.68  4540.21  3603.48  2924.52  
 2240.95  1607.89  1108.73  802.69   498.93   342.12   254.15   201.96   160.23   129.99   
 111.17   92.47    82.60    70.83    60.55    53.30    47.62    42.15    36.84    33.27    
 30.13    26.91    23.86    18.94    15.72    14.36    13.62    12.87    12.00    11.27    
 10.66    10.02    9.49     9.01     8.45     7.95     7.47     6.92     6.29     5.64     
 5.02     4.47     3.99     3.79     3.78     3.88     4.01     4.14     4.29     4.44     
 4.61     4.80     5.00     5.21     5.43     5.68     5.95     6.24     6.55     6.86     
 7.21     7.56     7.96     8.38     8.82     9.30     9.79     10.31    10.91    11.52    
 12.18    12.91    13.68    14.51    15.40    16.35    17.34    18.41    19.55    20.79    
 22.08    23.47    24.96    26.54    28.20    29.93    31.83    33.89    36.06    38.33    
 40.73    43.27    45.94    48.89    52.10    55.54    59.28    63.35    67.83    72.80    
 78.20    84.20    90.79    97.92    105.58   114.03   122.98   132.40   142.08   152.38   
 163.28   174.21   185.13   195.83   206.42   217.40   228.00   238.78   249.56   259.10   
 267.81   275.79   283.15   289.45   295.15   300.45   304.09   306.82   308.17   308.48   
 308.36   306.01   302.36   297.73   292.14   285.60   278.03   269.55   260.17   249.92   
 225.65   
267828.25 265891.03 263355.23 259421.28 252156.81 243955.75 235861.49 227755.74 218490.64 207240.72 
 195453.73 182994.33 168633.55 154484.83 139130.58 125243.77 111267.97 98622.73 86746.91 76898.57 
 68009.59 60729.80 54201.55 47805.72 43215.34 39555.50 36418.74 32834.21 29801.24 27293.32 
 24996.66 22700.00 20407.91 18696.01 17055.94 15476.45 13941.67 12670.49 11475.61 10314.01 
 9280.39  8346.06  7444.06  6643.73  5868.85  5250.81  4576.15  3997.66  3457.01  2983.55  
 2510.08  2037.23  1626.62  1265.90  983.23   747.58   585.64   458.58   374.92   309.08   
 253.46   197.99   157.37   127.80   106.42   88.77    73.79    60.97    51.33    43.89    
 37.57    32.63    28.39    23.79    18.02    16.47    15.08    13.41    11.99    10.77    
 9.39     7.68     5.63     3.95     3.46     3.53     3.62     3.73     3.86     4.00     
 4.15     4.31     4.49     4.69     4.92     5.16     5.41     5.67     5.97     6.26     
 6.57     6.89     7.25     7.63     8.04     8.49     8.98     9.49     10.06    10.66    
 11.30    11.99    12.73    13.52    14.35    15.25    16.23    17.23    18.27    19.40    
 20.61    21.93    23.39    24.89    26.44    28.14    30.00    32.00    34.10    36.36    
 38.76    41.36    44.11    47.03    50.18    53.67    57.43    61.49    65.75    70.54    
 75.98    81.94    88.31    95.37    102.99   111.40   120.92   130.45   140.26   150.71   
 161.17   172.22   183.10   194.28   205.30   216.23   227.15   237.55   247.78   257.54   
 266.70   275.38   283.37   290.81   297.55   303.11   307.45   310.71   312.98   314.00   
 313.69   311.91   308.94   304.97   299.89   293.90   286.84   279.03   270.42   261.07   
 225.65   
267828.25 267300.12 266238.00 263628.56 257776.92 249784.79 242039.27 234278.24 225286.05 213956.59 
 201484.55 189133.97 174471.86 159758.75 144411.61 129168.45 115642.09 102388.85 90691.51 80377.67 
 71613.59 64774.93 59289.44 54770.02 50356.61 46537.23 43282.79 40154.30 37269.03 34491.63 
 32090.37 29784.79 27756.11 25985.02 24213.93 22445.73 20931.54 19507.02 18147.52 16844.02 
 15712.21 14614.66 13471.85 12488.04 11494.35 10593.29 9730.86  8902.98  8141.12  7451.18  
 6854.63  6267.31  5774.68  5300.51  4895.40  4514.43  4169.57  3849.13  3552.30  3279.64  
 3009.00  2772.58  2536.16  2300.08  2090.20  1898.22  1721.05  1551.35  1394.83  1245.63  
 1112.21  982.43   864.88   755.28   655.72   562.96   475.77   397.24   330.35   277.82   
 225.29   172.94   135.97   105.85   73.77    35.83    8.66     4.76     3.58     3.11     
 2.81     2.56     2.48     2.45     2.38     1.62     1.54     1.64     1.67     1.67     
 1.66     1.70     1.74     1.81     1.90     1.89     1.93     2.03     2.14     2.18     
 2.31     2.48     2.51     2.66     2.82     3.02     3.24     3.39     3.56     3.74     
 3.94     4.17     4.42     4.71     5.04     5.41     5.79     6.24     6.74     7.26     
 7.82     8.45     9.15     9.86     10.64    11.51    12.46    13.56    14.70    15.95    
 17.36    18.90    20.67    22.55    24.65    26.97    29.49    32.14    35.00    38.10    
 41.32    44.76    48.42    52.36    56.53    60.97    65.69    70.71    76.03    81.46    
 87.10    92.89    98.89    105.23   111.52   118.16   125.55   132.95   140.75   148.64   
 157.10   165.91   174.82   184.46   194.37   204.53   214.85   225.14   235.26   244.95   
 225.65   
267828.25 268233.36 267957.55 266081.42 261161.82 253925.39 246771.83 238982.45 229952.83 219796.70 
 207718.55 194388.43 180210.81 165627.62 149884.98 135090.30 121297.89 109197.96 97114.75 86786.92 
 78429.23 71629.63 66185.28 61385.68 57224.67 53383.55 49780.02 46657.11 43684.33 40899.91 
 38252.55 35992.39 33727.83 31526.90 29641.05 27833.54 26225.83 24675.49 23229.16 21847.27 
 20521.67 19311.97 18043.69 16870.36 15785.46 14717.25 13720.86 12733.04 11789.10 11020.16 
 10252.55 9567.48  8960.23  8388.81  7884.67  7411.41  6952.54  6546.67  6182.03  5820.95  
 5461.51  5118.77  4803.04  4508.94  4227.15  3959.18  3695.78  3452.99  3212.01  2986.37  
 2781.06  2590.85  2402.08  2218.85  2050.19  1899.01  1758.07  1618.44  1486.09  1368.73  
 1258.77  1167.43  1076.24  985.06   901.58   826.73   757.22   695.49   641.51   594.30   
 546.19   500.63   458.45   419.63   384.29   350.97   321.05   295.72   273.29   246.95   
 225.95   207.13   189.72   173.98   159.03   143.60   129.39   116.67   103.97   92.82    
 83.15    74.52    65.85    57.37    48.45    39.97    33.50    25.98    10.74    4.43     
 3.85     3.84     3.94     4.13     4.34     4.64     4.97     5.31     5.75     6.42     
 7.23     8.13     9.43     10.31    9.97     10.10    10.66    11.34    12.13    13.21    
 14.28    15.36    16.96    19.02    20.71    22.39    24.24    26.34    28.77    31.46    
 34.15    35.72    38.46    41.98    45.68    49.47    53.50    57.86    62.43    67.19    
 72.30    77.70    83.30    89.28    95.40    101.92   108.57   115.69   123.29   132.33   
 140.18   148.64   158.20   168.04   178.27   189.17   200.40   211.50   222.62   234.01   
 225.65   
267828.25 269310.56 270342.35 270198.65 268071.36 262869.17 256311.97 249336.23 240684.98 232003.42 
 220433.01 207529.69 193021.02 177076.16 160942.23 145955.52 131624.93 117736.72 105292.72 94747.05 
 86319.54 79403.43 73689.02 68842.17 64478.15 60309.63 56559.02 52900.59 49644.23 46808.40 
 43976.29 41535.18 39199.08 37020.23 35047.78 33057.55 31250.43 29480.13 27802.81 26264.72 
 24753.05 23242.72 21865.57 20489.72 19236.65 17974.21 16776.18 15683.00 14672.87 13640.56 
 12705.56 11831.83 11032.72 10252.19 9508.28  8885.96  8328.61  7818.13  7357.66  6939.29  
 6540.82  6157.78  5785.88  5436.85  5115.41  4811.75  4518.64  4232.03  3951.51  3674.73  
 3407.73  3152.29  2920.39  2705.15  2490.18  2296.97  2116.10  1945.50  1785.64  1640.68  
 1509.16  1393.25  1285.76  1189.54  1098.03  1016.24  939.26   871.90   815.94   765.74   
 711.33   660.92   614.72   572.89   534.90   501.66   471.32   444.53   417.52   396.08   
 377.86   361.48   347.03   333.63   321.49   310.33   300.22   291.41   283.48   275.54   
 268.97   263.47   256.11   249.03   240.35   231.67   223.18   214.68   206.38   196.81   
 187.57   177.78   167.89   158.21   148.27   137.55   127.36   115.66   102.70   88.12    
 68.09    40.71    26.53    21.61    19.87    15.40    7.52     7.21     7.79     8.48     
 9.29     10.21    11.30    12.49    13.84    15.39    17.15    19.31    21.80    24.61    
 28.08    40.32    39.28    33.65    36.69    39.97    43.44    47.13    51.12    55.25    
 59.64    64.31    69.21    74.49    79.95    85.81    92.07    98.93    106.68   113.83   
 122.22   132.26   142.13   152.79   163.31   173.89   185.78   197.54   209.77   222.14   
 225.65   
267828.25 270316.15 272606.23 273938.63 273749.32 271124.53 265572.54 258242.12 249582.27 239915.50 
 228846.76 215775.41 200974.85 185164.30 169106.66 153087.00 138263.82 124283.75 114051.85 103856.12 
 93660.39 87060.84 81575.24 76544.60 71907.69 67679.98 63825.73 60159.54 56687.35 53296.54 
 50109.19 47333.20 44688.23 42020.55 39559.51 37382.75 35240.15 33093.83 31116.12 29134.32 
 27275.61 25366.45 23528.35 21734.65 20179.95 18762.60 17453.84 16249.44 15129.48 14145.54 
 13252.69 12362.03 11618.11 10875.59 10133.07 9482.34  8906.21  8378.72  7899.64  7431.03  
 6940.31  6486.98  6087.07  5712.26  5336.07  4980.42  4641.89  4307.14  3984.52  3691.85  
 3421.22  3173.77  2939.24  2705.38  2493.67  2287.42  2098.15  1917.09  1751.03  1599.61  
 1466.06  1348.00  1234.89  1139.72  1044.69  964.33   889.05   819.64   770.68   723.07   
 669.26   621.49   580.14   546.19   516.04   490.29   467.32   448.19   432.00   417.80   
 404.83   393.51   383.87   374.76   365.52   357.45   349.37   342.23   334.96   327.65   
 320.60   314.07   308.19   301.72   295.41   290.23   284.81   279.13   274.00   268.84   
 264.15   260.37   255.74   250.53   244.41   238.67   232.94   226.98   220.26   213.35   
 203.61   194.45   185.13   176.32   166.61   157.11   147.21   135.62   122.33   109.02   
 91.77    46.69    20.53    16.14    15.27    13.77    14.11    15.90    17.87    20.09    
 22.49    25.02    27.69    30.53    33.54    36.82    40.40    44.45    54.35    65.83    
 54.73    59.02    63.80    69.01    74.51    80.13    86.14    92.43    99.04    105.98   
