IESNA:LM-63-2002
[TEST] 1
[TESTLAB] AOK
[TESTDATE] 2022-05-17
[ISSUEDATE] 2022-05-17 13:29:07
[NEARFIELD] 
[LAMPPOSITION] 0,0
[OTHER] EVERFINE GO-2000A_V1 SYSTEM
[MANUFAC] AOK
[LUMCAT] A
[LUMINAIRE] AOK-800WiSF-HV-S5-00-5070-3585D-P
[LAMPCAT] B
[LAMP] 5050
[BALLAST] E
[BALLASTCAT] F
[OTHER] 
[OTHER] Gamma(deg)    Fz(lm)      Ft(lm)     %Lum    %Lamp
[OTHER]   0- 10      8417.33     8417.33     7.58     7.58
[OTHER]  10- 20     19134.74    27552.06    24.81    24.81
[OTHER]  20- 30     21904.79    49456.85    44.53    44.53
[OTHER]  30- 40     20827.23    70284.08    63.28    63.28
[OTHER]  40- 50     16891.28    87175.36    78.49    78.49
[OTHER]  50- 60     11983.57    99158.94    89.28    89.28
[OTHER]  60- 70      6837.62   105996.55    95.44    95.44
[OTHER]  70- 80      3056.18   109052.73    98.19    98.19
[OTHER]  80- 90      1067.02   110119.75    99.15    99.15
[OTHER]  90-100       375.64   110495.39    99.49    99.49
[OTHER] 100-110       164.37   110659.76    99.64    99.64
[OTHER] 110-120       111.62   110771.38    99.74    99.74
[OTHER] 120-130        86.00   110857.39    99.82    99.82
[OTHER] 130-140        68.14   110925.53    99.88    99.88
[OTHER] 140-150        53.56   110979.09    99.93    99.93
[OTHER] 150-160        40.32   111019.41    99.96    99.96
[OTHER] 160-170        29.51   111048.92    99.99    99.99
[OTHER] 170-180        10.82   111059.74   100.00   100.00
[OTHER] 
TILT=NONE
1 1.1106e+005 1 181 25 1 2 0.150 0.200 0.000
1.000 1 797.617
0.0    1.0    2.0    3.0    4.0    5.0    6.0    7.0    8.0    9.0    
 10.0   11.0   12.0   13.0   14.0   15.0   16.0   17.0   18.0   19.0   
 20.0   21.0   22.0   23.0   24.0   25.0   26.0   27.0   28.0   29.0   
 30.0   31.0   32.0   33.0   34.0   35.0   36.0   37.0   38.0   39.0   
 40.0   41.0   42.0   43.0   44.0   45.0   46.0   47.0   48.0   49.0   
 50.0   51.0   52.0   53.0   54.0   55.0   56.0   57.0   58.0   59.0   
 60.0   61.0   62.0   63.0   64.0   65.0   66.0   67.0   68.0   69.0   
 70.0   71.0   72.0   73.0   74.0   75.0   76.0   77.0   78.0   79.0   
 80.0   81.0   82.0   83.0   84.0   85.0   86.0   87.0   88.0   89.0   
 90.0   91.0   92.0   93.0   94.0   95.0   96.0   97.0   98.0   99.0   
 100.0  101.0  102.0  103.0  104.0  105.0  106.0  107.0  108.0  109.0  
 110.0  111.0  112.0  113.0  114.0  115.0  116.0  117.0  118.0  119.0  
 120.0  121.0  122.0  123.0  124.0  125.0  126.0  127.0  128.0  129.0  
 130.0  131.0  132.0  133.0  134.0  135.0  136.0  137.0  138.0  139.0  
 140.0  141.0  142.0  143.0  144.0  145.0  146.0  147.0  148.0  149.0  
 150.0  151.0  152.0  153.0  154.0  155.0  156.0  157.0  158.0  159.0  
 160.0  161.0  162.0  163.0  164.0  165.0  166.0  167.0  168.0  169.0  
 170.0  171.0  172.0  173.0  174.0  175.0  176.0  177.0  178.0  179.0  
 180.0  
0.0    15.0   30.0   45.0   60.0   75.0   90.0   105.0  120.0  135.0  
 150.0  165.0  180.0  195.0  210.0  225.0  240.0  255.0  270.0  285.0  
 300.0  315.0  330.0  345.0  360.0  
91903.34 89566.14 88343.94 83191.85 76137.60 70420.62 61951.42 55513.51 48036.16 40930.01 
 32636.05 28143.98 25744.55 23617.76 21838.68 20237.81 15620.38 13076.78 10308.65 7537.38  
 5174.45  3584.61  1871.23  998.98   136.20   81.90    36.28    25.10    20.16    17.03    
 15.01    13.41    12.04    10.93    10.15    9.53     8.94     8.42     7.90     7.42     
 7.05     6.74     6.48     6.32     6.11     5.98     5.79     5.65     5.51     5.36     
 5.13     4.93     4.85     4.81     4.76     4.63     4.45     4.24     4.10     4.00     
 3.90     3.86     3.82     3.78     3.74     3.73     3.71     3.71     3.69     3.67     
 3.67     3.66     3.66     3.66     3.65     3.65     3.65     3.69     3.76     3.82     
 3.92     4.03     4.16     4.29     4.43     4.59     4.78     5.00     5.25     5.52     
 5.84     6.16     6.52     6.89     7.30     7.74     8.22     8.71     9.28     9.89     
 10.56    11.26    12.02    12.82    13.67    14.56    15.50    16.47    17.51    18.59    
 19.73    20.92    22.14    23.39    24.70    26.05    27.44    28.85    30.36    31.97    
 33.67    35.44    37.37    39.36    41.46    43.55    45.86    48.25    50.71    53.24    
 55.83    58.49    61.23    64.03    66.83    69.66    72.53    75.52    78.56    81.64    
 84.84    88.27    91.92    95.60    99.43    103.37   107.53   111.73   116.08   120.66   
 125.38   130.04   134.52   138.91   143.39   147.51   151.18   154.37   157.27   159.79   
 161.86   163.63   165.09   165.99   166.18   165.81   164.73   163.06   160.76   157.98   
 154.77   150.88   146.76   142.46   137.98   132.87   127.42   121.78   116.27   110.68   
 103.93   
91903.34 88719.28 87492.57 85830.63 76324.28 71209.30 65259.39 57894.33 51276.36 44449.67 
 38275.39 29979.27 26481.29 24244.95 22013.82 20345.79 18669.69 14308.59 11884.68 9296.44  
 6996.63  4808.52  3386.56  1964.59  553.60   405.80   258.00   111.42   94.65    74.73    
 52.98    48.46    40.03    35.26    36.19    30.89    22.81    18.75    15.71    13.92    
 12.86    11.98    11.09    10.33    9.69     9.05     8.40     7.67     7.33     7.08     
 6.81     6.60     6.41     6.19     5.99     5.84     5.67     5.47     5.30     5.13     
 5.05     5.05     5.03     4.95     4.84     4.69     4.53     4.40     4.28     4.17     
 4.07     3.98     3.92     3.86     3.85     3.85     3.86     3.87     3.88     3.94     
 4.00     4.09     4.21     4.36     4.53     4.71     4.91     5.15     5.41     5.69     
 6.00     6.33     6.70     7.10     7.56     8.04     8.55     9.11     9.71     10.39    
 11.11    11.84    12.61    13.43    14.30    15.27    16.26    17.26    18.30    19.42    
 20.58    21.80    23.02    24.23    25.57    26.97    28.46    30.03    31.61    33.27    
 35.03    36.96    38.95    41.00    43.06    45.23    47.48    49.83    52.21    54.63    
 57.07    59.58    62.11    64.67    67.22    69.85    72.60    75.42    78.28    81.33    
 84.61    88.01    91.51    95.20    98.98    102.93   106.96   111.12   115.37   119.78   
 124.28   128.70   132.96   137.19   141.21   144.84   148.18   151.28   154.15   156.71   
 158.79   160.53   161.73   162.21   161.35   160.54   159.23   157.45   155.32   152.91   
 150.13   147.17   143.86   140.20   136.36   132.15   127.50   122.67   117.72   112.76   
 103.93   
91903.34 89075.10 86681.86 85566.53 80242.83 74524.75 68713.77 63037.70 56360.27 50067.29 
 44257.47 37990.25 31204.04 26486.84 24007.70 22003.97 20111.38 18568.33 16917.00 12939.53 
 10726.86 8535.68  6344.49  4641.60  3576.72  2393.27  1693.34  998.49   303.64   210.16   
 153.49   124.85   104.09   83.43    65.15    57.92    50.13    42.32    38.35    35.58    
 31.60    28.49    25.29    23.20    21.30    19.56    17.84    16.24    14.88    13.37    
 11.93    10.52    9.30     9.00     9.38     9.53     9.27     8.82     8.31     7.83     
 7.36     6.98     6.64     6.34     6.08     5.86     5.67     5.49     5.31     5.12     
 4.98     4.85     4.73     4.60     4.48     4.38     4.30     4.24     4.21     4.20     
 4.24     4.36     4.56     4.76     5.00     5.26     5.54     5.86     6.21     6.59     
 7.02     7.48     7.98     8.52     9.14     9.77     10.47    11.20    11.99    12.83    
 13.69    14.60    15.57    16.56    17.61    18.71    19.84    21.04    22.25    23.54    
 24.86    26.26    27.70    29.21    30.77    32.40    34.07    35.80    37.58    39.42    
 41.28    43.18    45.16    47.14    49.14    51.15    53.27    55.43    57.61    59.83    
 62.13    64.51    67.04    69.69    72.43    75.24    78.23    81.39    84.65    87.95    
 91.30    94.80    98.45    102.17   105.99   109.93   114.00   118.01   121.90   125.84   
 129.71   133.38   136.84   140.12   143.40   146.31   148.94   151.27   153.35   155.25   
 156.74   157.66   158.17   158.23   157.82   157.05   155.94   154.45   153.22   151.44   
 149.25   146.78   143.92   141.04   137.75   134.09   130.14   126.04   122.23   118.07   
 103.93   
91903.34 89203.45 86683.51 85237.55 84248.81 79911.51 73362.76 69541.66 65155.48 59190.07 
 54267.29 49226.12 43479.23 39096.54 34662.56 28438.48 25980.16 23521.84 21069.62 19228.82 
 17571.02 15963.90 14532.72 11310.60 9534.13  7733.96  5841.47  4928.10  3654.18  2772.42  
 1890.19  946.57   580.43   404.10   329.57   255.04   180.96   157.10   132.43   113.44   
 94.82    82.54    71.93    62.42    54.27    48.03    42.43    37.13    33.83    31.00    
 27.96    23.80    19.80    16.74    14.87    13.72    13.55    13.02    12.42    11.62    
 10.90    10.23    9.59     9.03     8.59     8.22     7.86     7.49     7.18     6.89     
 6.63     6.35     6.07     5.80     5.53     5.27     5.05     4.88     4.77     4.74     
 4.78     4.95     5.22     5.53     5.87     6.25     6.67     7.14     7.63     8.15     
 8.71     9.30     9.91     10.58    11.33    12.09    12.90    13.75    14.68    15.65    
 16.63    17.64    18.76    19.92    21.15    22.38    23.65    25.00    26.41    27.84    
 29.33    30.88    32.50    34.11    35.77    37.51    39.35    41.19    43.03    44.93    
 46.94    49.04    51.25    53.43    55.66    57.97    60.39    62.94    65.54    68.23    
 70.95    73.75    76.68    79.63    82.59    85.65    88.84    92.02    95.12    98.35    
 101.74   105.05   108.33   111.58   114.80   118.05   121.16   124.23   127.19   130.07   
 132.91   135.63   138.20   140.71   143.05   145.28   147.22   148.79   150.12   151.10   
 151.90   152.45   152.81   152.85   152.60   152.17   151.51   150.62   149.56   148.32   
 146.77   145.09   143.66   141.02   138.17   135.43   132.38   129.30   126.40   123.22   
 103.93   
91903.34 89753.01 87426.76 85996.88 84897.96 83229.76 81926.03 77763.16 72598.29 69664.34 
 65681.93 62333.02 58538.75 54143.36 50949.37 47659.83 43153.59 39557.72 36406.42 32692.30 
 29102.70 25251.67 22596.76 20667.58 18951.52 17253.20 15744.79 14281.07 12798.37 11473.85 
 9823.49  8169.10  6779.64  5495.26  4379.94  3679.63  2985.84  2383.54  1833.56  1337.44  
 1047.80  760.75   473.70   360.73   286.59   224.74   179.51   144.97   125.24   105.66   
 86.09    74.36    62.97    55.38    47.61    41.29    37.35    33.61    29.44    26.75    
 23.30    19.72    16.77    15.90    15.13    14.05    12.96    12.06    11.09    10.36    
 9.86     9.25     8.75     8.36     7.95     7.49     7.04     6.62     6.27     6.04     
 5.95     6.10     6.45     6.84     7.27     7.72     8.21     8.74     9.32     9.94     
 10.63    11.36    12.14    12.98    13.87    14.81    15.79    16.85    17.96    19.15    
 20.39    21.67    23.03    24.43    25.91    27.44    29.02    30.66    32.37    34.13    
 35.94    37.85    39.82    41.79    43.87    45.99    48.19    50.40    52.73    55.10    
 57.53    60.02    62.58    65.17    67.82    70.49    73.25    76.07    78.89    81.72    
 84.61    87.57    90.50    93.39    96.25    99.13    102.07   104.95   107.82   110.66   
 113.48   116.30   119.11   121.84   124.47   126.99   129.46   131.83   134.03   135.93   
 137.68   139.28   140.89   142.13   143.45   144.62   145.67   146.54   147.32   148.09   
 148.74   149.33   149.86   150.19   150.34   150.35   150.05   149.48   148.83   148.02   
 147.23   145.80   144.33   142.80   140.96   139.00   137.14   135.14   132.89   130.48   
 103.93   
91903.34 90868.19 88855.61 87498.16 86262.08 84770.09 83609.29 81921.18 80845.88 79155.32 
 77946.68 76447.68 74956.65 72575.45 69772.72 67003.08 64051.99 61952.48 59538.49 57377.34 
 54643.20 52239.53 49978.96 47221.21 44741.09 42133.98 39611.10 37409.09 34777.73 32536.62 
 29879.90 27547.07 25442.29 23337.51 21235.02 19405.78 17483.58 15702.12 14169.90 12784.68 
 11479.48 10378.37 9230.48  8217.16  7185.05  6256.80  5402.85  4608.12  3812.08  3173.45  
 2534.82  1898.76  1525.16  1229.09  1009.29  825.87   670.33   539.23   419.86   322.20   
 257.50   193.02   150.78   120.00   95.56    76.98    62.15    50.54    40.33    34.74    
 29.35    24.07    19.59    18.56    16.69    14.87    13.24    11.93    10.60    8.91     
 7.01     5.91     5.99     6.33     6.70     7.12     7.60     8.10     8.62     9.19     
 9.81     10.46    11.17    11.94    12.79    13.67    14.62    15.61    16.68    17.81    
 18.97    20.20    21.52    22.97    24.46    25.99    27.59    29.28    31.04    32.85    
 34.73    36.69    38.76    40.81    42.96    45.21    47.53    49.91    52.24    54.67    
 57.19    59.83    62.58    65.37    68.08    70.84    73.75    76.66    79.56    82.54    
 85.40    88.39    91.30    94.24    96.98    99.80    102.66   105.35   108.00   110.29   
 111.94   114.17   116.62   119.01   121.36   123.69   125.88   127.96   129.93   131.80   
 133.60   135.36   136.96   138.51   140.02   141.40   142.74   143.95   145.09   146.15   
 147.15   148.19   149.19   150.02   150.69   151.13   151.35   151.34   151.22   150.98   
 150.59   150.02   149.36   148.68   147.71   146.35   144.97   143.52   141.82   140.07   
 103.93   
91903.34 91950.07 91123.82 90621.91 90127.15 89233.24 88406.34 87191.10 86553.69 85188.59 
 84152.15 83490.23 82287.14 81389.21 80217.68 78927.92 77793.78 76946.00 75648.99 74242.62 
 72720.48 71604.00 70202.91 68782.44 67064.44 65581.63 63679.70 62198.05 60401.97 58410.20 
 56438.74 54367.78 52491.27 50440.12 48536.98 46613.72 44330.67 42096.14 40240.59 38618.17 
 36763.45 34881.36 32951.22 31134.18 29400.14 27564.03 25914.35 24264.68 22615.21 20984.52 
 19494.56 18104.25 16771.26 15420.24 14166.08 12930.96 11843.00 10806.89 9797.41  8880.53  
 8075.03  7287.94  6515.82  5837.36  5193.38  4620.01  4090.21  3607.82  3153.30  2758.90  
 2365.40  2048.60  1754.97  1488.22  1245.81  1022.52  822.63   660.08   516.71   388.47   
 299.52   210.57   122.05   69.49    23.02    6.00     4.53     4.04     3.94     3.83     
 3.67     3.20     2.89     2.94     3.00     3.10     3.22     3.38     3.55     3.74     
 3.94     4.14     4.36     4.58     4.81     5.06     5.32     5.61     5.90     6.21     
 6.55     6.91     7.31     7.73     8.17     8.66     9.17     9.69     10.23    10.80    
 11.41    12.03    12.68    13.36    14.05    14.79    15.57    16.35    17.17    18.04    
 18.93    19.84    20.78    21.75    22.74    23.77    24.85    26.00    27.16    28.38    
 29.65    30.96    32.37    33.85    35.40    37.05    38.74    40.43    42.11    43.89    
 45.74    47.66    49.67    51.80    54.01    56.35    58.84    61.60    64.38    67.33    
 70.43    73.76    77.22    80.83    84.39    88.11    91.44    94.93    98.32    101.67   
 104.92   108.20   111.33   114.29   116.97   119.34   121.56   123.76   125.65   127.48   
 103.93   
91903.34 92674.73 92604.60 93250.59 93773.68 94242.30 94379.14 94616.93 94887.81 95207.13 
 95173.83 95490.54 95617.62 95743.09 95936.84 95637.04 95290.24 94789.87 94231.85 93340.50 
 92409.91 91422.83 90098.18 88690.33 87101.15 85390.01 83457.02 81263.15 78680.67 76198.55 
 73601.17 70942.54 68503.96 66151.65 63836.18 61701.66 59424.09 56940.53 54746.58 52793.29 
 50850.43 48831.46 46964.15 44917.76 42897.82 41022.60 39076.36 37149.60 35383.64 33626.98 
 31750.93 30141.44 28510.54 26919.50 25397.03 23863.14 22509.72 21202.02 19954.90 18640.01 
 17437.05 16266.26 15124.59 14035.31 13042.77 11954.88 11050.45 10147.67 9377.21  8563.51  
 7831.26  7107.41  6456.66  5842.47  5332.26  4838.50  4385.55  3950.05  3553.34  3208.24  
 2899.39  2617.29  2348.03  2112.49  1885.50  1690.70  1510.43  1364.05  1226.11  1095.51  
 964.98   848.68   746.83   656.09   576.18   507.86   448.44   399.92   356.67   318.50   
 285.41   257.45   233.47   212.38   193.15   175.20   159.46   145.74   133.10   122.42   
 111.76   103.86   95.89    86.43    75.40    63.07    49.96    38.16    31.04    22.63    
 11.48    8.01     7.85     8.34     8.85     9.43     10.06    10.67    11.35    12.08    
 12.82    13.55    14.38    15.26    16.17    17.09    18.17    19.55    20.18    20.69    
 21.56    22.46    23.31    24.15    25.07    25.86    26.60    27.70    29.29    30.84    
 32.24    33.60    34.35    35.62    37.32    39.05    40.98    43.07    45.31    47.76    
 50.41    53.33    56.40    59.87    63.54    67.76    71.64    74.97    78.73    82.65    
 86.51    90.36    94.22    97.80    101.31   104.77   108.22   111.58   114.79   117.98   
 103.93   
91903.34 93314.19 94793.89 96342.30 98277.91 100112.35 101855.72 103356.94 104700.07 106190.40 
 107218.89 107800.45 107835.50 107378.10 106250.79 104352.50 101618.47 98972.72 96665.08 94509.80 
 92208.01 89876.81 87424.10 85223.31 82973.55 80995.30 78942.46 77011.20 74872.51 72796.68 
 70941.22 69016.09 67045.70 64966.52 62838.22 60618.30 58447.25 56345.29 54325.82 52174.88 
 50077.96 48138.79 46243.93 44490.59 42844.28 41088.01 39535.06 37890.58 36298.83 34763.68 
 33273.30 31844.07 30501.59 29059.39 27653.49 26261.46 25039.64 23815.21 22359.74 21002.31 
 19765.36 18756.69 17695.31 16671.22 15707.00 14670.81 13651.93 12655.25 11682.51 10779.66 
 9878.85  9013.82  8187.35  7360.51  6537.91  5826.01  5200.79  4612.80  4085.64  3584.06  
 3190.38  2890.23  2590.09  2290.70  2053.66  1842.45  1670.13  1528.51  1402.75  1265.93  
 1133.94  1008.30  898.06   804.68   724.07   655.94   596.34   545.12   500.41   460.71   
 426.76   398.31   372.93   351.91   333.23   316.84   302.04   288.58   277.23   267.40   
 258.16   249.61   241.05   232.50   225.00   218.08   211.73   205.58   199.69   193.34   
 187.06   180.86   174.66   168.43   160.95   152.29   142.98   133.62   124.05   113.63   
 102.31   90.25    75.92    52.59    34.81    26.96    22.61    19.55    13.30    10.27    
 10.86    11.65    12.45    13.31    14.18    15.12    16.09    17.07    18.10    19.18    
 20.36    21.63    22.79    24.30    28.34    34.70    28.17    29.18    30.84    32.73    
 34.95    37.46    40.44    43.73    47.15    50.60    53.92    57.69    61.61    65.75    
 69.92    74.25    78.54    82.82    87.16    91.43    95.74    100.13   104.51   108.95   
 103.93   
91903.34 94402.76 97108.61 99615.59 102774.72 105618.16 108450.97 110987.52 112528.35 112998.69 
 112566.15 109874.05 106870.01 104512.88 101808.20 99409.55 96975.76 94835.15 92817.54 90656.98 
 88318.87 85991.15 83383.12 80660.44 77760.45 74959.26 72363.38 69916.13 67623.36 65600.24 
 63867.97 62314.61 61107.30 59963.17 59015.92 57930.05 56822.99 55763.88 54484.02 52986.98 
 51379.73 49611.31 47969.48 46444.98 44993.63 43398.67 41409.73 39477.65 37766.60 35989.08 
 34287.90 32690.69 31126.52 29566.66 28078.92 26571.82 25188.73 23834.76 22473.02 21023.00 
 19680.57 18366.61 17137.31 15864.83 14591.92 13447.15 12343.60 11125.52 9906.43  8840.88  
 7957.86  7234.02  6530.38  5862.69  5264.73  4641.08  4109.31  3670.56  3284.21  2932.44  
 2630.11  2357.86  2102.11  1871.51  1681.43  1516.51  1379.83  1256.40  1155.85  1055.50  
 955.16   856.31   771.60   697.82   634.84   580.59   534.99   496.59   464.25   435.81   
 411.74   391.33   373.32   357.81   343.38   330.36   319.13   308.76   299.31   290.22   
 281.92   274.46   268.36   261.75   255.53   249.71   244.50   239.26   233.88   228.42   
 223.60   218.36   212.23   205.54   199.44   192.92   186.70   180.70   174.76   168.81   
 162.94   157.51   152.57   147.32   141.81   136.47   130.22   121.71   113.19   102.43   
 91.48    82.29    71.75    46.18    21.83    17.59    15.17    13.59    12.13    12.19    
 13.17    14.19    15.29    16.48    17.74    18.98    20.34    21.85    23.62    25.77    
 28.43    36.15    37.35    34.26    36.81    39.81    43.07    46.63    50.35    54.31    
 58.47    62.79    67.24    71.56    76.05    80.70    85.68    90.90    96.09    101.57   
 103.93   
