IESNA:LM-63-2002
[TEST] 1
[TESTLAB] AOK
[TESTDATE] 2022-05-23
[ISSUEDATE] 2022-05-23 15:21:36
[NEARFIELD] 
[LAMPPOSITION] 0,0
[OTHER] EVERFINE GO-2000A_V1 SYSTEM
[MANUFAC] AOK
[LUMCAT] A
[LUMINAIRE] AOK-400WiSF-HV-S35-00-5070-15D-P
[LAMPCAT] B
[LAMP] 5050
[BALLAST] E
[BALLASTCAT] F
[OTHER] 
[OTHER] Gamma(deg)    Fz(lm)      Ft(lm)     %Lum    %Lamp
[OTHER]   0- 10     24258.53    24258.53    46.50    46.50
[OTHER]  10- 20     12593.49    36852.02    70.65    70.65
[OTHER]  20- 30      4768.60    41620.62    79.79    79.79
[OTHER]  30- 40      3028.13    44648.75    85.59    85.59
[OTHER]  40- 50      2429.29    47078.03    90.25    90.25
[OTHER]  50- 60      2033.93    49111.97    94.15    94.15
[OTHER]  60- 70      1463.27    50575.24    96.95    96.95
[OTHER]  70- 80       736.40    51311.64    98.37    98.37
[OTHER]  80- 90       285.80    51597.45    98.91    98.91
[OTHER]  90-100       147.41    51744.86    99.20    99.20
[OTHER] 100-110       104.43    51849.29    99.40    99.40
[OTHER] 110-120        85.53    51934.82    99.56    99.56
[OTHER] 120-130        65.04    51999.86    99.69    99.69
[OTHER] 130-140        45.70    52045.56    99.77    99.77
[OTHER] 140-150        33.28    52078.84    99.84    99.84
[OTHER] 150-160        37.61    52116.44    99.91    99.91
[OTHER] 160-170        35.37    52151.82    99.98    99.98
[OTHER] 170-180        12.05    52163.87   100.00   100.00
[OTHER] 
TILT=NONE
1 52164 1 181 25 1 2 0.150 0.200 0.000
1.000 1 408.32
0.0    1.0    2.0    3.0    4.0    5.0    6.0    7.0    8.0    9.0    
 10.0   11.0   12.0   13.0   14.0   15.0   16.0   17.0   18.0   19.0   
 20.0   21.0   22.0   23.0   24.0   25.0   26.0   27.0   28.0   29.0   
 30.0   31.0   32.0   33.0   34.0   35.0   36.0   37.0   38.0   39.0   
 40.0   41.0   42.0   43.0   44.0   45.0   46.0   47.0   48.0   49.0   
 50.0   51.0   52.0   53.0   54.0   55.0   56.0   57.0   58.0   59.0   
 60.0   61.0   62.0   63.0   64.0   65.0   66.0   67.0   68.0   69.0   
 70.0   71.0   72.0   73.0   74.0   75.0   76.0   77.0   78.0   79.0   
 80.0   81.0   82.0   83.0   84.0   85.0   86.0   87.0   88.0   89.0   
 90.0   91.0   92.0   93.0   94.0   95.0   96.0   97.0   98.0   99.0   
 100.0  101.0  102.0  103.0  104.0  105.0  106.0  107.0  108.0  109.0  
 110.0  111.0  112.0  113.0  114.0  115.0  116.0  117.0  118.0  119.0  
 120.0  121.0  122.0  123.0  124.0  125.0  126.0  127.0  128.0  129.0  
 130.0  131.0  132.0  133.0  134.0  135.0  136.0  137.0  138.0  139.0  
 140.0  141.0  142.0  143.0  144.0  145.0  146.0  147.0  148.0  149.0  
 150.0  151.0  152.0  153.0  154.0  155.0  156.0  157.0  158.0  159.0  
 160.0  161.0  162.0  163.0  164.0  165.0  166.0  167.0  168.0  169.0  
 170.0  171.0  172.0  173.0  174.0  175.0  176.0  177.0  178.0  179.0  
 180.0  
0.0    15.0   30.0   45.0   60.0   75.0   90.0   105.0  120.0  135.0  
 150.0  165.0  180.0  195.0  210.0  225.0  240.0  255.0  270.0  285.0  
 300.0  315.0  330.0  345.0  360.0  
380740.66 380320.22 379089.42 376505.00 369672.31 315962.08 266487.28 221455.51 164825.94 119038.01 
 84137.65 49362.81 26462.70 4505.36  461.24   297.21   171.63   46.05    32.48    25.35    
 21.84    18.44    15.89    14.01    12.51    11.13    9.96     8.94     8.25     7.92     
 8.13     8.35     8.35     7.94     7.47     7.08     6.33     5.89     5.63     5.54     
 5.52     5.21     4.90     4.50     4.16     3.76     3.60     3.50     3.33     3.15     
 2.88     2.76     2.71     2.70     2.64     2.63     2.61     2.61     2.54     2.51     
 2.49     2.48     2.48     2.47     2.47     2.46     2.46     2.45     2.45     2.45     
 2.45     2.46     2.46     2.46     2.47     2.47     2.47     2.47     2.48     2.48     
 2.48     2.48     2.49     2.55     2.69     2.87     3.00     3.14     3.20     3.26     
 3.33     3.42     3.54     3.62     3.68     3.72     3.81     3.90     4.05     4.21     
 4.41     4.62     4.85     5.12     5.41     5.71     6.03     6.34     6.66     6.98     
 7.28     7.56     7.82     8.08     8.35     8.64     8.95     9.27     9.63     10.05    
 10.47    10.91    11.36    11.84    12.34    12.87    13.46    14.09    14.75    15.45    
 16.16    16.91    17.70    18.54    19.42    20.35    21.38    22.51    23.77    25.18    
 26.72    28.43    30.45    32.73    35.39    38.48    42.07    46.18    50.97    56.99    
 64.26    72.74    82.41    93.04    105.20   118.10   131.09   143.86   157.02   170.34   
 182.80   194.32   205.21   214.20   220.62   224.58   225.99   225.07   222.01   217.15   
 210.98   203.91   196.06   187.89   179.38   170.63   161.81   152.38   142.25   131.10   
 119.62   
380740.66 380448.38 378757.85 376131.43 370701.94 332681.57 281564.85 230448.16 179271.67 120330.80 
 87845.01 52211.43 39366.49 26521.57 13676.63 947.91   795.44   569.61   343.78   119.43   
 93.74    91.22    78.70    55.03    68.26    60.57    36.20    21.57    15.95    12.53    
 10.21    8.82     8.03     7.46     6.62     5.30     4.89     4.77     4.63     4.49     
 4.29     4.25     4.64     4.66     4.64     4.61     4.45     4.37     4.20     4.05     
 3.89     3.80     3.65     3.55     3.50     3.45     3.37     3.30     3.23     3.15     
 3.04     2.91     2.82     2.73     2.67     2.60     2.53     2.45     2.37     2.31     
 2.25     2.21     2.17     2.13     2.09     2.05     2.05     2.04     2.04     2.03     
 2.03     2.05     2.08     2.12     2.18     2.25     2.32     2.40     2.49     2.59     
 2.69     2.80     2.90     3.02     3.15     3.28     3.42     3.57     3.74     3.93     
 4.14     4.36     4.58     4.82     5.08     5.35     5.63     5.91     6.21     6.51     
 6.82     7.15     7.46     7.76     8.07     8.40     8.76     9.13     9.53     9.92     
 10.35    10.83    11.33    11.83    12.34    12.88    13.46    14.07    14.71    15.38    
 16.10    16.84    17.62    18.43    19.30    20.26    21.33    22.47    23.71    25.10    
 26.70    28.45    30.42    32.71    35.32    38.37    41.86    45.96    50.74    56.68    
 63.67    72.07    81.65    92.49    104.31   116.81   129.91   142.83   156.09   169.21   
 181.76   193.89   204.67   213.69   220.33   224.41   225.85   225.05   222.10   217.42   
 211.60   204.73   197.13   189.05   180.69   172.24   163.35   153.73   142.58   130.96   
 119.62   
380740.66 380076.58 377647.79 374405.95 367859.26 351946.87 294013.23 237886.82 183692.38 131543.44 
 96641.74 61941.04 37226.06 27258.53 16205.10 8744.47  1321.43  972.99   714.63   533.29   
 366.18   194.98   129.39   107.35   85.78    75.17    62.74    51.14    44.65    38.28    
 33.63    28.40    24.23    21.75    19.78    17.86    15.69    13.39    11.12    10.45    
 10.20    10.14    9.57     8.99     8.65     8.44     7.59     7.02     6.72     6.30     
 5.78     5.40     4.88     4.25     3.88     3.73     3.58     3.42     3.23     3.02     
 2.87     2.72     2.59     2.49     2.41     2.34     2.27     2.20     2.15     2.10     
 2.07     2.04     2.02     2.00     1.98     1.97     1.95     1.94     1.92     1.91     
 1.91     1.91     1.93     1.99     2.05     2.13     2.21     2.30     2.41     2.52     
 2.64     2.77     2.90     3.05     3.21     3.38     3.55     3.72     3.90     4.08     
 4.28     4.47     4.67     4.89     5.11     5.33     5.56     5.81     6.07     6.35     
 6.63     6.93     7.24     7.55     7.88     8.22     8.57     8.93     9.31     9.69     
 10.10    10.53    10.97    11.44    11.90    12.38    12.87    13.43    14.03    14.66    
 15.32    16.03    16.82    17.68    18.60    19.62    20.68    21.94    23.32    24.83    
 26.49    28.36    30.51    32.90    35.64    38.82    42.55    46.85    51.94    58.22    
 65.69    74.25    83.82    94.29    106.24   118.96   131.93   144.72   158.12   171.69   
 184.48   195.69   205.58   213.78   219.47   222.86   224.00   222.85   219.95   215.45   
 209.55   202.78   195.22   187.20   178.83   170.34   160.79   150.36   139.51   128.38   
 119.62   
380740.66 380039.33 377173.32 372725.47 365000.47 347267.97 319112.56 258751.13 198472.31 149252.38 
 106773.41 77889.04 51352.53 37366.03 27427.74 17551.16 14334.47 9237.66  6463.98  3690.30  
 936.17   725.49   473.89   374.84   275.80   177.19   128.00   96.59    74.76    61.64    
 52.52    45.20    39.39    34.78    31.22    28.28    25.56    23.31    21.32    19.51    
 17.92    16.32    14.52    12.15    10.30    9.47     9.11     8.65     8.25     7.83     
 7.37     6.92     6.46     6.00     5.56     5.21     4.94     4.71     4.48     4.27     
 4.07     3.89     3.71     3.54     3.40     3.28     3.17     3.05     2.93     2.81     
 2.68     2.54     2.43     2.31     2.22     2.14     2.05     1.98     1.93     1.87     
 1.81     1.81     1.81     1.84     1.90     1.97     2.06     2.15     2.26     2.37     
 2.49     2.62     2.75     2.90     3.04     3.21     3.37     3.53     3.71     3.89     
 4.09     4.28     4.48     4.70     4.92     5.15     5.39     5.63     5.88     6.14     
 6.41     6.69     6.99     7.27     7.58     7.88     8.20     8.53     8.87     9.21     
 9.57     9.92     10.31    10.70    11.10    11.52    11.99    12.48    12.99    13.53    
 14.10    14.73    15.44    16.19    17.02    17.93    19.01    20.17    21.44    22.86    
 24.56    26.39    28.49    30.89    33.64    36.89    40.68    45.20    50.49    56.90    
 64.31    72.83    82.39    93.01    104.74   117.04   130.21   143.26   156.67   169.58   
 181.63   192.54   201.87   209.58   215.04   218.41   219.70   218.96   216.31   212.04   
 207.48   201.58   194.25   185.58   176.94   168.66   159.55   149.62   139.67   129.63   
 119.62   
380740.66 379391.50 375833.88 368987.35 354538.85 330000.03 294484.60 253704.01 207413.04 163918.99 
 122646.81 93193.11 63874.09 49635.70 37742.28 30221.81 24088.83 16972.20 13425.15 10887.86 
 8362.38  5836.89  4745.08  3117.48  2372.74  1697.46  1108.68  520.79   407.63   300.58   
 214.31   156.22   130.87   105.90   80.94    68.46    58.17    50.33    43.40    37.91    
 33.22    29.12    25.92    23.20    20.99    19.02    17.29    15.86    14.65    13.38    
 12.14    10.91    9.42     7.79     7.10     6.84     6.56     6.32     6.09     5.85     
 5.63     5.45     5.28     5.10     4.95     4.81     4.68     4.57     4.47     4.38     
 4.29     4.19     4.08     3.95     3.79     3.62     3.44     3.25     3.04     2.81     
 2.59     2.30     2.09     2.05     2.04     2.11     2.19     2.28     2.37     2.48     
 2.59     2.72     2.85     2.99     3.15     3.30     3.47     3.64     3.82     4.01     
 4.21     4.41     4.62     4.85     5.08     5.31     5.54     5.80     6.06     6.32     
 6.59     6.86     7.14     7.43     7.72     8.02     8.32     8.63     8.95     9.28     
 9.60     9.94     10.29    10.64    11.00    11.35    11.73    12.14    12.57    13.02    
 13.50    14.00    14.54    15.18    15.91    16.74    17.66    18.70    19.87    21.26    
 22.85    24.63    26.72    29.17    32.11    35.60    39.70    44.51    50.40    57.27    
 65.09    73.92    83.88    94.66    106.49   118.69   131.16   143.87   156.35   168.24   
 179.26   189.15   197.76   204.70   210.01   213.39   215.02   214.73   213.79   209.94   
 204.75   198.69   191.81   184.09   175.50   167.43   159.29   150.30   141.31   132.14   
 119.62   
380740.66 378951.79 374974.79 367083.15 349634.72 320703.33 283211.09 238439.70 193692.58 152245.54 
 119006.88 93961.54 74794.09 60793.47 49985.63 41420.98 34555.86 28796.28 24495.73 20198.95 
 16410.20 12834.81 10461.32 8785.80  7226.06  5969.44  4901.08  4186.94  3688.73  3262.52  
 2892.77  2523.02  2154.04  1882.42  1630.32  1405.99  1197.83  1027.43  867.39   722.39   
 595.23   477.97   377.01   314.01   251.00   188.21   151.07   114.88   89.22    70.84    
 56.74    46.26    38.95    33.19    29.18    25.75    22.83    20.55    18.60    17.12    
 15.79    14.82    13.90    13.10    12.33    11.34    10.52    9.66     9.29     9.21     
 9.12     9.06     8.94     8.80     8.68     8.58     8.43     8.27     8.07     7.68     
 7.06     6.15     5.00     3.02     1.71     1.73     1.79     1.86     1.93     2.01     
 2.10     2.19     2.29     2.41     2.53     2.66     2.80     2.95     3.10     3.27     
 3.44     3.61     3.80     3.99     4.19     4.39     4.61     4.84     5.07     5.31     
 5.56     5.82     6.10     6.38     6.66     6.95     7.24     7.55     7.85     8.16     
 8.47     8.80     9.14     9.47     9.78     10.12    10.47    10.84    11.20    11.59    
 11.98    12.40    12.88    13.40    13.95    14.58    15.31    16.17    17.17    18.32    
 19.72    21.40    23.34    25.72    28.60    32.15    36.39    41.50    47.46    54.68    
 62.69    71.79    81.59    92.26    103.69   115.45   127.53   139.38   151.21   162.47   
 172.79   182.25   190.42   197.55   203.22   207.55   210.32   212.67   212.24   210.31   
 207.04   202.66   197.13   190.71   182.68   174.97   167.28   157.82   147.80   138.31   
 119.62   
380740.66 379530.89 375902.51 368667.19 352906.75 324804.74 287689.70 243053.21 198439.93 156161.54 
 121543.11 95985.14 77425.96 63443.94 52508.92 43367.49 36071.06 30370.73 26571.62 22772.50 
 18984.21 16232.61 13902.97 11932.72 10238.10 8819.68  7758.80  6989.04  6468.73  6050.97  
 5695.29  5378.20  5099.91  4828.90  4573.54  4339.67  4120.71  3927.72  3760.00  3594.42  
 3441.93  3294.47  3137.72  3001.05  2856.14  2717.55  2577.83  2438.10  2297.09  2168.97  
 2052.79  1937.22  1828.77  1726.48  1626.59  1534.29  1440.00  1350.05  1259.42  1170.07  
 1084.28  1001.68  922.17   846.03   770.67   697.86   627.43   561.29   497.92   439.86   
 383.62   331.60   284.27   244.85   205.51   172.81   144.96   121.76   102.93   86.96    
 73.31    62.58    52.32    43.57    35.59    6.14     2.66     1.28     1.00     0.93     
 0.88     0.83     0.84     0.85     0.86     0.86     0.87     0.88     0.90     0.91     
 0.92     0.94     0.96     0.99     1.01     1.03     1.07     1.10     1.14     1.17     
 1.21     1.25     1.30     1.34     1.39     1.44     1.46     1.51     1.56     1.61     
 1.66     1.71     1.77     1.82     1.87     1.93     1.99     2.05     2.11     2.19     
 2.27     2.35     2.45     2.55     2.67     2.81     2.96     3.15     3.36     3.61     
 3.92     4.28     4.72     5.30     5.92     6.70     7.58     8.57     9.67     10.95    
 12.29    13.72    15.28    17.01    18.86    20.83    22.97    25.17    27.48    29.78    
 32.12    34.46    36.83    39.20    41.62    44.12    46.67    49.41    53.02    55.34    
 58.71    62.00    65.72    70.15    74.52    80.66    88.29    96.51    105.30   115.03   
 119.62   
380740.66 379096.79 374847.02 366495.84 349125.45 320303.25 280276.95 235206.05 190283.56 150888.11 
 119225.27 98962.95 78798.29 65783.82 55379.65 47046.47 40441.39 35063.44 30652.43 26743.87 
 23301.98 20255.97 17440.65 15050.49 12906.88 11572.57 10244.67 8916.77  8174.29  7603.07  
 7162.42  6789.28  6469.95  6211.06  5977.72  5790.67  5630.24  5475.18  5334.46  5203.77  
 5078.74  4966.06  4853.11  4715.93  4585.68  4447.55  4305.39  4165.97  4024.98  3893.92  
 3779.55  3665.39  3557.97  3451.41  3340.89  3236.69  3134.92  3030.79  2928.63  2819.73  
 2713.56  2606.51  2500.35  2393.01  2286.05  2177.51  2071.74  1964.80  1851.09  1739.72  
 1627.96  1518.19  1404.37  1290.21  1173.67  1078.89  984.32   894.74   809.40   728.46   
 654.44   585.10   521.66   465.65   418.38   375.73   341.02   312.67   291.86   272.61   
 254.75   235.14   216.41   200.05   185.03   171.09   158.78   148.16   138.40   129.17   
 120.71   112.26   105.66   99.73    94.23    89.16    84.54    79.87    76.02    72.18    
 68.25    64.89    61.80    58.23    54.77    51.49    48.34    45.31    42.36    39.34    
 36.50    33.90    31.21    28.47    25.89    23.10    19.93    16.87    13.86    10.72    
 7.55     5.47     4.05     2.92     2.11     1.96     1.99     2.11     2.27     2.46     
 2.69     2.98     3.34     3.78     4.34     4.99     5.75     6.66     7.65     8.79     
 10.03    11.33    12.80    14.40    16.09    17.82    19.70    21.59    23.53    25.49    
 27.50    29.53    31.58    33.69    35.81    37.99    40.25    42.59    45.12    48.87    
 51.73    54.05    58.66    63.08    67.60    74.00    82.18    91.06    100.60   111.19   
 119.62   
380740.66 379325.99 375477.99 367890.71 352177.31 325286.27 287610.21 242427.19 197300.44 157734.19 
 127213.64 104948.07 87476.48 73708.37 63179.49 55044.35 48353.20 42604.07 38026.95 34239.16 
 30524.67 27305.87 24087.06 20876.20 18376.13 16209.50 14345.44 12691.91 11319.17 10194.35 
 9229.60  8425.32  7784.67  7321.96  6999.46  6746.15  6535.98  6348.80  6191.52  6045.90  
 5912.61  5782.02  5648.02  5526.28  5399.50  5283.75  5158.80  5028.64  4894.86  4756.40  
 4625.14  4498.63  4370.65  4252.41  4124.36  4002.27  3879.39  3756.44  3627.48  3493.72  
 3357.52  3216.14  3072.84  2934.80  2804.61  2671.28  2537.96  2404.58  2266.99  2127.89  
 1987.51  1844.68  1710.66  1587.88  1462.03  1337.17  1208.87  1095.71  989.17   889.63   
 797.41   709.10   633.80   567.40   509.02   459.69   421.05   390.41   365.08   344.25   
 325.00   304.65   285.56   268.08   252.79   239.14   225.52   214.56   204.06   194.75   
 186.77   179.45   172.87   166.57   161.07   155.75   151.43   146.94   142.83   139.16   
 135.80   132.37   129.10   126.10   123.31   120.39   117.64   114.94   112.30   109.67   
 107.13   104.72   102.30   99.85    97.44    94.88    92.35    89.70    86.95    84.25    
 81.39    78.62    75.95    73.11    70.14    67.27    63.99    60.45    57.28    54.19    
 50.82    47.26    43.79    41.01    37.69    34.01    27.65    11.64    8.62     7.77     
 8.13     9.47     10.95    12.60    14.34    16.20    18.19    20.27    22.42    24.62    
 26.79    28.94    31.13    33.30    35.41    37.47    39.50    41.54    43.52    45.69    
 48.07    51.12    55.04    59.13    63.50    69.88    77.90    87.15    97.57    108.63   
 119.62   
380740.66 378971.03 374975.80 367256.89 351858.79 325706.10 286813.57 240869.73 195764.72 158464.19 
 129072.01 111852.73 94737.75 77622.78 67573.92 59365.63 53048.39 47966.22 43324.77 39096.53 
 35025.57 31392.83 28023.77 24814.45 22027.82 19634.61 17555.76 15732.55 14102.82 12655.87 
 11496.29 10339.42 9182.55  8439.56  7907.72  7523.35  7228.82  6971.75  6736.37  6527.22  
 6352.60  6185.10  6034.02  5899.84  5776.58  5648.63  5519.04  5400.62  5286.28  5175.97  
 5054.03  4919.72  4776.92  4647.59  4519.19  4380.02  4235.97  4083.50  3923.77  3770.77  
 3617.02  3469.27  3314.38  3162.61  3017.25  2871.95  2725.85  2576.56  2418.45  2262.67  
 2108.90  1964.74  1823.43  1673.39  1529.24  1396.31  1266.68  1148.11  1029.65  911.18   
 819.61   733.47   654.16   583.53   528.72   484.12   446.36   412.78   384.43   364.39   
 345.01   324.18   304.41   288.09   273.04   260.88   250.63   242.04   234.49   227.72   
 221.35   215.79   210.63   206.17   201.83   197.93   194.77   191.82   189.17   186.53   
 184.32   182.19   180.02   177.99   176.17   174.22   172.35   170.28   168.03   165.52   
 163.43   160.92   158.80   156.20   154.07   151.86   149.40   146.80   144.20   141.48   
 138.70   135.76   132.64   129.26   125.57   121.88   118.29   114.57   111.04   107.11   
 102.90   98.70    94.67    90.59    86.61    83.21    79.96    74.34    69.05    67.02    
 63.22    59.79    55.29    51.97    49.12    27.68    21.83    21.70    23.08    24.49    
 26.42    28.98    31.67    34.44    37.21    39.75    41.89    43.93    45.86    47.58    
 49.20    50.91    53.05    55.87    59.68    65.20    72.73    82.30    92.87    104.39   
 119.62   
