IESNA:LM-63-2002
[TEST] 1
[TESTLAB] AOK
[TESTDATE] 2022-05-23
[ISSUEDATE] 2022-05-23 16:00:58
[NEARFIELD] 
[LAMPPOSITION] 0,0
[OTHER] EVERFINE GO-2000A_V1 SYSTEM
[MANUFAC] AOK
[LUMCAT] A
[LUMINAIRE] AOK-400WiSF-HV-S35-00-5070-15D-P
[LAMPCAT] B
[LAMP] 5050
[BALLAST] E
[BALLASTCAT] F
[OTHER] 
[OTHER] Gamma(deg)    Fz(lm)      Ft(lm)     %Lum    %Lamp
[OTHER]   0- 10     23938.71    23938.71    46.60    46.60
[OTHER]  10- 20     12378.48    36317.19    70.70    70.70
[OTHER]  20- 30      4677.08    40994.27    79.80    79.80
[OTHER]  30- 40      2978.90    43973.17    85.60    85.60
[OTHER]  40- 50      2391.39    46364.56    90.26    90.26
[OTHER]  50- 60      2004.86    48369.42    94.16    94.16
[OTHER]  60- 70      1439.77    49809.19    96.96    96.96
[OTHER]  70- 80       722.97    50532.16    98.37    98.37
[OTHER]  80- 90       280.56    50812.72    98.92    98.92
[OTHER]  90-100       144.83    50957.55    99.20    99.20
[OTHER] 100-110       102.79    51060.35    99.40    99.40
[OTHER] 110-120        84.20    51144.55    99.56    99.56
[OTHER] 120-130        63.99    51208.54    99.69    99.69
[OTHER] 130-140        44.92    51253.46    99.77    99.77
[OTHER] 140-150        32.64    51286.10    99.84    99.84
[OTHER] 150-160        36.82    51322.92    99.91    99.91
[OTHER] 160-170        34.88    51357.80    99.98    99.98
[OTHER] 170-180        11.93    51369.73   100.00   100.00
[OTHER] 
TILT=NONE
1 51370 1 181 25 1 2 0.150 0.200 0.000
1.000 1 404.197
0.0    1.0    2.0    3.0    4.0    5.0    6.0    7.0    8.0    9.0    
 10.0   11.0   12.0   13.0   14.0   15.0   16.0   17.0   18.0   19.0   
 20.0   21.0   22.0   23.0   24.0   25.0   26.0   27.0   28.0   29.0   
 30.0   31.0   32.0   33.0   34.0   35.0   36.0   37.0   38.0   39.0   
 40.0   41.0   42.0   43.0   44.0   45.0   46.0   47.0   48.0   49.0   
 50.0   51.0   52.0   53.0   54.0   55.0   56.0   57.0   58.0   59.0   
 60.0   61.0   62.0   63.0   64.0   65.0   66.0   67.0   68.0   69.0   
 70.0   71.0   72.0   73.0   74.0   75.0   76.0   77.0   78.0   79.0   
 80.0   81.0   82.0   83.0   84.0   85.0   86.0   87.0   88.0   89.0   
 90.0   91.0   92.0   93.0   94.0   95.0   96.0   97.0   98.0   99.0   
 100.0  101.0  102.0  103.0  104.0  105.0  106.0  107.0  108.0  109.0  
 110.0  111.0  112.0  113.0  114.0  115.0  116.0  117.0  118.0  119.0  
 120.0  121.0  122.0  123.0  124.0  125.0  126.0  127.0  128.0  129.0  
 130.0  131.0  132.0  133.0  134.0  135.0  136.0  137.0  138.0  139.0  
 140.0  141.0  142.0  143.0  144.0  145.0  146.0  147.0  148.0  149.0  
 150.0  151.0  152.0  153.0  154.0  155.0  156.0  157.0  158.0  159.0  
 160.0  161.0  162.0  163.0  164.0  165.0  166.0  167.0  168.0  169.0  
 170.0  171.0  172.0  173.0  174.0  175.0  176.0  177.0  178.0  179.0  
 180.0  
0.0    15.0   30.0   45.0   60.0   75.0   90.0   105.0  120.0  135.0  
 150.0  165.0  180.0  195.0  210.0  225.0  240.0  255.0  270.0  285.0  
 300.0  315.0  330.0  345.0  360.0  
376089.56 375828.95 374640.97 372139.36 367252.88 316313.04 267212.86 222085.72 168368.53 119912.41 
 84997.50 50239.88 26923.56 6462.19  523.47   324.93   184.61   44.29    31.01    23.78    
 20.37    17.06    14.66    12.91    11.57    10.32    9.22     8.27     7.64     7.37     
 7.65     7.92     8.00     7.63     7.17     6.77     6.08     5.65     5.41     5.29     
 5.31     5.03     4.75     4.34     4.05     3.63     3.47     3.38     3.23     3.05     
 2.79     2.66     2.61     2.60     2.56     2.55     2.53     2.53     2.48     2.43     
 2.42     2.41     2.41     2.41     2.41     2.41     2.41     2.41     2.39     2.39     
 2.39     2.39     2.39     2.39     2.39     2.39     2.40     2.42     2.43     2.44     
 2.45     2.46     2.48     2.49     2.61     2.79     2.93     3.06     3.13     3.19     
 3.25     3.34     3.46     3.55     3.59     3.65     3.73     3.82     3.96     4.12     
 4.31     4.51     4.75     5.01     5.29     5.58     5.90     6.22     6.53     6.84     
 7.13     7.41     7.68     7.94     8.20     8.48     8.78     9.11     9.47     9.85     
 10.27    10.70    11.16    11.63    12.13    12.63    13.22    13.82    14.48    15.16    
 15.85    16.59    17.37    18.18    19.04    19.96    20.97    22.06    23.30    24.65    
 26.17    27.82    29.79    32.03    34.55    37.56    41.08    45.07    49.71    55.43    
 62.50    70.83    80.39    90.87    102.20   114.85   127.75   140.56   153.53   166.57   
 178.90   190.54   201.54   210.41   217.17   221.35   222.98   222.29   219.49   214.78   
 208.88   201.92   194.30   186.25   177.91   169.22   160.51   151.15   141.26   130.18   
 118.91   
376089.56 375916.87 374232.45 371851.97 366708.98 332661.69 282110.68 231559.66 180946.03 122184.29 
 88846.37 52602.45 39655.39 26708.32 13761.26 931.54   800.47   572.65   344.84   118.49   
 90.26    87.27    77.97    51.87    65.11    62.57    35.86    21.74    15.48    12.11    
 9.65     8.32     7.59     7.05     6.28     5.01     4.56     4.47     4.35     4.24     
 4.05     4.01     4.40     4.45     4.44     4.43     4.27     4.20     4.05     3.92     
 3.74     3.66     3.54     3.44     3.39     3.35     3.28     3.20     3.14     3.06     
 2.96     2.83     2.74     2.66     2.59     2.52     2.46     2.39     2.32     2.24     
 2.19     2.16     2.11     2.07     2.03     2.02     2.02     2.01     2.00     1.99     
 1.99     2.00     2.03     2.07     2.12     2.19     2.27     2.35     2.43     2.53     
 2.63     2.74     2.84     2.96     3.09     3.21     3.35     3.50     3.66     3.85     
 4.05     4.26     4.48     4.73     4.98     5.25     5.53     5.80     6.10     6.40     
 6.71     7.01     7.33     7.63     7.94     8.26     8.61     8.98     9.36     9.74     
 10.16    10.63    11.12    11.62    12.12    12.66    13.23    13.82    14.46    15.11    
 15.81    16.55    17.31    18.11    18.97    19.88    20.94    22.06    23.27    24.62    
 26.17    27.90    29.83    32.04    34.58    37.54    40.93    44.90    49.59    55.31    
 62.15    70.33    79.67    90.21    101.90   114.12   127.04   139.86   152.96   165.89   
 178.35   190.37   201.13   210.23   216.91   221.18   222.79   222.13   219.38   214.86   
 209.19   202.46   195.00   187.04   178.82   170.52   161.72   152.35   141.44   129.84   
 118.91   
376089.56 375507.13 373086.98 369974.17 363726.68 350632.02 293510.15 237214.15 183741.06 131725.17 
 96690.86 61854.54 37298.50 27367.55 16032.95 8664.21  1336.97  976.92   705.59   529.32   
 371.63   201.42   126.60   105.65   85.29    73.73    61.90    50.43    43.38    37.52    
 32.79    27.86    23.63    21.15    19.25    17.41    15.32    13.11    10.78    10.11    
 9.88     9.84     9.32     8.77     8.41     8.22     7.40     6.84     6.55     6.15     
 5.64     5.27     4.79     4.16     3.77     3.63     3.49     3.34     3.15     2.95     
 2.80     2.64     2.51     2.42     2.35     2.28     2.21     2.15     2.09     2.05     
 2.02     1.99     1.96     1.95     1.93     1.92     1.90     1.89     1.88     1.87     
 1.87     1.87     1.89     1.94     2.01     2.08     2.16     2.26     2.36     2.46     
 2.58     2.71     2.85     3.00     3.16     3.32     3.48     3.65     3.83     4.01     
 4.20     4.40     4.59     4.81     5.02     5.25     5.48     5.71     5.97     6.25     
 6.53     6.82     7.12     7.43     7.76     8.10     8.45     8.80     9.16     9.55     
 9.96     10.38    10.80    11.25    11.71    12.21    12.70    13.23    13.81    14.44    
 15.11    15.81    16.57    17.41    18.32    19.31    20.39    21.61    22.94    24.43    
 26.06    27.90    30.03    32.38    35.10    38.14    41.67    45.96    51.04    57.01    
 64.20    72.46    81.92    92.54    104.11   116.31   128.96   142.20   155.31   168.54   
 181.08   192.58   202.60   210.65   216.49   220.04   221.26   220.23   217.46   213.04   
 207.35   200.59   193.27   185.29   177.09   168.76   159.27   148.93   138.14   126.96   
 118.91   
376089.56 375431.62 372695.25 368225.04 360569.08 342901.92 314625.78 255509.93 196466.09 147080.96 
 105338.58 76998.91 50844.13 36804.86 27018.10 17292.14 14128.03 9110.34  6376.86  3643.38  
 929.19   722.93   471.16   372.11   273.05   174.43   125.50   94.77    73.39    60.24    
 51.33    44.15    38.45    33.92    30.46    27.58    24.95    22.72    20.80    19.05    
 17.51    15.92    14.15    11.81    10.00    9.22     8.87     8.43     8.03     7.63     
 7.18     6.74     6.30     5.85     5.43     5.07     4.81     4.58     4.37     4.16     
 3.97     3.79     3.62     3.45     3.31     3.20     3.08     2.97     2.85     2.73     
 2.61     2.48     2.37     2.26     2.17     2.08     2.00     1.93     1.88     1.83     
 1.77     1.76     1.77     1.80     1.86     1.93     2.02     2.11     2.21     2.32     
 2.44     2.57     2.70     2.84     3.00     3.15     3.31     3.48     3.65     3.83     
 4.02     4.22     4.41     4.63     4.85     5.07     5.31     5.55     5.79     6.05     
 6.32     6.60     6.89     7.17     7.47     7.77     8.09     8.42     8.74     9.07     
 9.42     9.79     10.17    10.56    10.95    11.36    11.81    12.31    12.81    13.35    
 13.91    14.54    15.23    15.96    16.80    17.70    18.74    19.90    21.15    22.54    
 24.21    26.01    28.06    30.44    33.15    36.34    40.07    44.50    49.72    56.00    
 63.28    71.68    81.07    91.58    103.16   115.29   128.28   141.21   154.38   167.25   
 179.19   190.02   199.29   206.95   212.38   215.73   217.05   216.36   213.77   209.62   
 205.12   199.37   192.17   183.64   175.04   166.83   157.71   147.80   137.82   127.74   
 118.91   
376089.56 374707.06 371245.86 364394.55 349938.07 325322.57 290218.11 249524.17 204015.35 160822.87 
 120389.66 91495.45 62732.65 48731.64 37132.54 29703.30 23719.78 16651.82 13201.56 10703.30 
 8216.13  5728.96  4670.54  3056.13  2328.79  1628.51  1068.03  509.01   400.58   292.69   
 209.46   152.46   127.70   103.31   78.92    66.70    56.76    48.99    42.26    36.97    
 32.42    28.39    25.25    22.61    20.49    18.57    16.85    15.47    14.29    13.05    
 11.82    10.61    9.09     7.55     6.92     6.67     6.40     6.17     5.94     5.70     
 5.51     5.32     5.14     4.98     4.83     4.69     4.56     4.46     4.36     4.28     
 4.19     4.09     3.98     3.86     3.70     3.54     3.36     3.16     2.95     2.74     
 2.53     2.24     2.04     1.99     1.99     2.06     2.14     2.24     2.34     2.43     
 2.55     2.67     2.80     2.94     3.09     3.25     3.42     3.58     3.76     3.95     
 4.15     4.34     4.56     4.78     5.01     5.24     5.48     5.72     5.97     6.23     
 6.49     6.77     7.05     7.32     7.61     7.90     8.21     8.51     8.83     9.15     
 9.48     9.80     10.15    10.49    10.85    11.20    11.58    11.98    12.40    12.85    
 13.32    13.83    14.36    14.99    15.71    16.54    17.46    18.48    19.62    20.96    
 22.53    24.30    26.38    28.79    31.66    35.09    39.14    43.92    49.72    56.47    
 64.24    72.93    82.72    93.46    105.03   117.07   129.56   142.06   154.39   166.26   
 177.05   186.91   195.36   202.23   207.47   210.81   212.38   212.10   211.18   207.32   
 202.30   196.25   189.55   181.97   173.48   165.43   157.28   148.30   139.28   130.05   
 118.91   
376089.56 374429.85 370552.87 362666.50 345664.16 316523.67 274570.87 232618.09 190673.90 149939.48 
 117078.44 92127.36 73262.79 59730.21 49162.38 40706.92 33947.18 29234.41 24521.63 19815.12 
 15954.69 12561.92 10254.70 8617.92  7082.47  5829.52  4794.26  4100.08  3615.76  3194.02  
 2806.10  2418.73  2105.03  1838.55  1591.58  1372.47  1166.93  997.06   840.54   699.70   
 574.86   459.73   359.20   299.77   240.33   181.07   142.86   108.76   85.18    67.81    
 54.04    44.36    37.52    32.07    28.17    24.78    22.05    19.96    18.01    16.59    
 15.35    14.40    13.52    12.75    11.94    10.97    10.19    9.34     9.07     8.98     
 8.89     8.82     8.70     8.56     8.45     8.34     8.21     8.05     7.85     7.47     
 6.85     5.95     4.84     2.92     1.67     1.68     1.75     1.81     1.89     1.97     
 2.05     2.15     2.25     2.36     2.49     2.62     2.75     2.90     3.05     3.22     
 3.39     3.55     3.74     3.93     4.13     4.34     4.55     4.77     5.00     5.25     
 5.50     5.74     6.02     6.30     6.57     6.85     7.14     7.45     7.75     8.05     
 8.36     8.69     9.02     9.35     9.66     9.99     10.34    10.70    11.07    11.44    
 11.83    12.24    12.70    13.23    13.77    14.40    15.12    15.97    16.95    18.11    
 19.49    21.15    23.06    25.42    28.27    31.75    35.95    40.99    46.91    53.97    
 61.94    70.92    80.61    91.17    102.48   114.04   126.04   137.78   149.37   160.53   
 170.75   180.06   188.16   195.20   200.77   205.06   207.78   210.10   209.67   207.77   
 204.55   200.17   194.66   188.22   180.22   172.55   164.86   155.46   145.51   136.09   
 118.91   
376089.56 374752.07 371053.72 363556.24 346891.16 318886.25 281717.54 236816.36 191944.88 150049.02 
 116852.62 92538.42 74773.89 61511.10 50868.18 42066.54 34986.52 29471.07 25489.62 21517.16 
 18426.71 15755.71 13462.40 11550.01 9916.08  8550.59  7546.72  6811.50  6319.67  5926.62  
 5580.64  5277.49  5005.89  4742.73  4486.26  4259.01  4045.96  3856.71  3695.28  3531.19  
 3377.96  3234.53  3078.19  2943.69  2802.85  2665.34  2527.83  2390.34  2254.25  2127.43  
 2013.18  1900.39  1795.27  1694.43  1596.21  1504.25  1411.86  1323.37  1234.02  1145.85  
 1062.02  980.55   902.53   826.32   751.58   679.40   611.90   545.92   481.93   423.39   
 368.66   317.69   277.33   236.97   196.70   164.11   137.32   114.77   97.28    81.69    
 68.76    58.71    49.18    40.78    32.89    3.20     2.14     1.11     0.92     0.86     
 0.82     0.78     0.78     0.79     0.80     0.82     0.82     0.84     0.86     0.86     
 0.88     0.90     0.93     0.95     0.98     1.00     1.03     1.07     1.11     1.14     
 1.18     1.22     1.27     1.31     1.36     1.40     1.45     1.48     1.53     1.58     
 1.63     1.68     1.75     1.80     1.85     1.91     1.97     2.03     2.09     2.17     
 2.25     2.34     2.43     2.54     2.66     2.79     2.95     3.14     3.35     3.60     
 3.90     4.27     4.71     5.28     5.92     6.69     7.57     8.56     9.66     10.93    
 12.25    13.69    15.25    16.96    18.79    20.78    22.88    25.10    27.42    29.71    
 32.04    34.40    36.76    39.17    41.59    44.09    46.65    49.46    53.02    55.43    
 58.67    61.93    65.65    70.04    74.35    80.44    88.00    96.08    104.77   114.41   
 118.91   
376089.56 374276.98 369961.68 361048.22 343256.55 313515.34 272814.33 226766.53 182953.85 145114.20 
 113952.15 94940.73 76033.53 63490.20 53778.65 45867.88 39459.74 34245.47 29885.31 26001.85 
 22622.97 19654.42 16957.43 14613.53 12540.65 11247.52 9960.55  8673.59  7972.71  7433.31  
 7010.77  6652.81  6350.93  6105.07  5880.07  5696.01  5537.87  5388.32  5250.02  5120.59  
 4997.64  4885.53  4765.94  4633.10  4500.53  4364.38  4223.80  4088.38  3951.41  3825.21  
 3717.00  3605.42  3497.81  3391.03  3286.65  3184.30  3082.76  2980.82  2879.69  2772.16  
 2667.38  2563.71  2459.76  2351.82  2245.44  2139.07  2034.70  1930.34  1818.00  1706.38  
 1595.58  1487.98  1376.70  1264.70  1164.27  1063.94  963.62   874.34   789.92   711.27   
 638.26   572.01   509.65   455.38   408.08   367.37   333.72   306.34   285.93   267.31   
 248.91   229.83   211.56   195.71   180.91   166.93   154.90   144.90   135.14   126.64   
 118.16   109.68   103.20   97.45    92.03    86.99    82.35    77.89    74.22    70.50    
 66.65    63.34    60.20    56.70    53.39    50.20    47.16    44.09    41.08    38.11    
 35.38    32.84    30.20    27.48    24.85    22.03    18.98    15.98    12.98    10.02    
 6.85     5.06     3.74     2.63     1.96     1.90     1.96     2.08     2.24     2.43     
 2.66     2.96     3.31     3.77     4.33     4.98     5.75     6.64     7.65     8.78     
 10.01    11.32    12.79    14.38    16.06    17.79    19.65    21.54    23.46    25.43    
 27.43    29.48    31.52    33.63    35.74    37.91    40.18    42.54    45.08    48.81    
 51.65    54.09    58.62    63.06    67.57    74.02    82.17    90.97    100.50   111.01   
 118.91   
376089.56 374471.32 370485.81 362464.54 345736.95 317894.31 275172.07 232449.83 189773.48 151642.95 
 122090.66 100925.49 84374.05 71338.03 61051.07 53208.30 46966.64 41526.07 37010.96 33307.37 
 29654.70 26564.39 23474.07 20389.75 17843.42 15712.95 13905.81 12347.94 11012.57 9892.20  
 8959.58  8197.32  7598.28  7155.11  6849.43  6606.78  6403.90  6226.76  6070.17  5932.40  
 5803.40  5674.72  5542.99  5420.82  5296.76  5182.56  5058.73  4928.90  4797.45  4664.10  
 4537.99  4417.41  4293.71  4175.04  4050.12  3929.58  3809.45  3689.23  3561.39  3430.32  
 3294.41  3154.52  3014.69  2879.35  2753.44  2620.61  2487.78  2355.33  2220.63  2084.10  
 1945.40  1804.06  1672.20  1551.03  1427.64  1304.56  1179.06  1068.40  963.71   866.94   
 776.15   690.40   616.85   552.10   495.48   447.70   410.72   381.12   356.09   336.56   
 317.24   297.38   278.43   261.67   247.86   234.05   220.27   209.45   199.21   190.28   
 182.42   175.34   168.92   162.81   157.47   152.25   148.02   143.65   139.64   136.05   
 132.81   129.47   126.24   123.32   120.61   117.67   115.00   112.33   109.73   107.16   
 104.65   102.30   99.97    97.59    95.24    92.71    90.21    87.59    84.89    82.18    
 79.31    76.66    74.02    71.14    68.29    65.47    62.18    58.71    55.71    52.58    
 49.19    45.78    42.51    39.69    36.50    32.69    23.30    10.73    8.15     7.40     
 8.13     9.49     10.97    12.60    14.33    16.19    18.17    20.23    22.38    24.55    
 26.69    28.85    31.03    33.20    35.30    37.34    39.37    41.41    43.42    45.61    
 47.99    51.10    54.96    59.11    63.53    69.96    78.04    87.24    97.63    108.54   
 118.91   
376089.56 374155.24 369911.14 361695.70 345344.08 317814.39 277425.91 230834.92 187342.96 151736.50 
 123388.35 105196.63 87091.91 74752.55 65398.55 57568.92 51651.75 46717.95 42227.46 38021.16 
 34097.55 30527.68 27233.24 24103.01 21404.52 19080.81 17087.91 15323.63 13757.23 12330.78 
 11200.86 10073.74 8946.62  8245.16  7745.90  7383.21  7097.29  6845.62  6616.86  6414.02  
 6245.41  6078.33  5931.65  5803.56  5681.23  5553.75  5427.03  5308.72  5199.69  5086.33  
 4964.45  4830.19  4693.01  4565.80  4441.48  4303.19  4160.77  4005.51  3850.94  3699.18  
 3548.65  3401.73  3250.45  3100.71  2959.39  2814.55  2671.28  2523.61  2368.31  2213.75  
 2061.99  1919.86  1781.00  1634.58  1492.89  1362.84  1232.90  1111.32  989.82   887.38   
 797.69   713.62   636.06   567.58   515.06   472.26   435.66   402.87   376.05   356.35   
 337.10   316.73   297.60   281.33   266.89   255.18   245.17   236.94   229.54   222.98   
 216.80   211.41   206.41   202.06   198.06   194.23   191.02   188.20   185.54   183.02   
 180.89   178.85   176.81   174.85   173.02   171.16   169.29   167.25   165.04   162.56   
 160.39   158.04   155.78   153.40   151.26   149.09   146.66   144.19   141.59   138.81   
 135.98   133.07   130.12   126.46   122.80   119.34   115.86   112.14   108.70   104.81   
 100.53   96.53    92.62    88.61    84.70    81.42    77.83    72.43    67.34    65.41    
 61.67    58.27    53.70    50.81    47.29    24.85    21.31    21.54    22.97    24.35    
 26.42    29.00    31.69    34.46    37.20    39.69    41.81    43.87    45.72    47.35    
 48.86    50.46    52.57    55.42    59.27    64.95    72.60    82.25    92.84    104.32   
 118.91   
