IESNA:LM-63-2002
[TEST] 1
[TESTLAB] AOK
[TESTDATE] 2022-05-13
[ISSUEDATE] 2022-05-13 17:13:23
[NEARFIELD] 
[LAMPPOSITION] 0,0
[OTHER] EVERFINE GO-2000A_V1 SYSTEM
[MANUFAC] AOK
[LUMCAT] A
[LUMINAIRE] AOK-400WiSF-NVY-S5-00-5070-30D-
[LAMPCAT] B
[LAMP] 5050
[BALLAST] E
[BALLASTCAT] F
[OTHER] 
[OTHER] Gamma(deg)    Fz(lm)      Ft(lm)     %Lum    %Lamp
[OTHER]   0- 10     10783.68    10783.68    20.02    20.02
[OTHER]  10- 20     16224.16    27007.83    50.14    50.14
[OTHER]  20- 30      9918.16    36926.00    68.56    68.56
[OTHER]  30- 40      6970.06    43896.06    81.50    81.50
[OTHER]  40- 50      4405.34    48301.40    89.68    89.68
[OTHER]  50- 60      2515.28    50816.68    94.35    94.35
[OTHER]  60- 70      1488.83    52305.51    97.11    97.11
[OTHER]  70- 80       709.96    53015.47    98.43    98.43
[OTHER]  80- 90       292.09    53307.55    98.97    98.97
[OTHER]  90-100       148.75    53456.31    99.25    99.25
[OTHER] 100-110       101.78    53558.09    99.44    99.44
[OTHER] 110-120        80.69    53638.78    99.59    99.59
[OTHER] 120-130        62.58    53701.36    99.70    99.70
[OTHER] 130-140        48.03    53749.38    99.79    99.79
[OTHER] 140-150        40.07    53789.45    99.87    99.87
[OTHER] 150-160        36.71    53826.16    99.93    99.93
[OTHER] 160-170        26.16    53852.33    99.98    99.98
[OTHER] 170-180         9.44    53861.77   100.00   100.00
[OTHER] 
TILT=NONE
1 53862 1 181 25 1 2 0.150 0.200 0.000
1.000 1 393.379
0.0    1.0    2.0    3.0    4.0    5.0    6.0    7.0    8.0    9.0    
 10.0   11.0   12.0   13.0   14.0   15.0   16.0   17.0   18.0   19.0   
 20.0   21.0   22.0   23.0   24.0   25.0   26.0   27.0   28.0   29.0   
 30.0   31.0   32.0   33.0   34.0   35.0   36.0   37.0   38.0   39.0   
 40.0   41.0   42.0   43.0   44.0   45.0   46.0   47.0   48.0   49.0   
 50.0   51.0   52.0   53.0   54.0   55.0   56.0   57.0   58.0   59.0   
 60.0   61.0   62.0   63.0   64.0   65.0   66.0   67.0   68.0   69.0   
 70.0   71.0   72.0   73.0   74.0   75.0   76.0   77.0   78.0   79.0   
 80.0   81.0   82.0   83.0   84.0   85.0   86.0   87.0   88.0   89.0   
 90.0   91.0   92.0   93.0   94.0   95.0   96.0   97.0   98.0   99.0   
 100.0  101.0  102.0  103.0  104.0  105.0  106.0  107.0  108.0  109.0  
 110.0  111.0  112.0  113.0  114.0  115.0  116.0  117.0  118.0  119.0  
 120.0  121.0  122.0  123.0  124.0  125.0  126.0  127.0  128.0  129.0  
 130.0  131.0  132.0  133.0  134.0  135.0  136.0  137.0  138.0  139.0  
 140.0  141.0  142.0  143.0  144.0  145.0  146.0  147.0  148.0  149.0  
 150.0  151.0  152.0  153.0  154.0  155.0  156.0  157.0  158.0  159.0  
 160.0  161.0  162.0  163.0  164.0  165.0  166.0  167.0  168.0  169.0  
 170.0  171.0  172.0  173.0  174.0  175.0  176.0  177.0  178.0  179.0  
 180.0  
0.0    15.0   30.0   45.0   60.0   75.0   90.0   105.0  120.0  135.0  
 150.0  165.0  180.0  195.0  210.0  225.0  240.0  255.0  270.0  285.0  
 300.0  315.0  330.0  345.0  360.0  
125869.58 123918.28 123624.33 123336.43 112128.50 96884.71 84656.86 73305.38 58818.30 49957.94 
 36981.54 25538.40 14548.51 520.43   220.19   66.82    51.60    37.79    23.98    19.54    
 17.02    15.33    14.03    12.36    10.83    9.69     8.91     8.44     8.37     8.41     
 8.16     6.66     5.74     5.36     5.37     5.49     5.67     5.82     5.58     5.46     
 5.28     5.21     5.07     5.00     4.76     4.62     4.67     4.70     4.56     4.28     
 4.06     4.04     3.92     3.84     3.80     3.76     3.64     3.53     3.44     3.32     
 3.23     3.19     3.15     3.09     3.00     2.92     2.84     2.79     2.71     2.64     
 2.56     2.51     2.47     2.44     2.41     2.40     2.40     2.40     2.40     2.43     
 2.47     2.51     2.57     2.66     2.84     2.98     3.09     3.18     3.26     3.36     
 3.46     3.57     3.66     3.71     3.79     3.87     3.99     4.13     4.32     4.53     
 4.80     5.06     5.36     5.68     6.04     6.42     6.81     7.21     7.62     8.06     
 8.54     9.03     9.53     10.07    10.69    11.34    12.04    12.80    13.63    14.51    
 15.44    16.41    17.48    18.61    19.82    21.08    22.46    23.94    25.48    27.11    
 28.81    30.58    32.43    34.35    36.43    38.62    40.94    43.37    45.97    48.72    
 51.66    54.99    58.78    62.77    67.13    71.77    76.65    81.85    87.48    93.34    
 99.24    105.11   111.09   116.98   122.62   127.96   133.02   137.71   142.11   146.18   
 149.89   153.22   155.94   157.84   158.87   158.95   158.19   156.39   153.70   150.31   
 146.33   141.96   137.41   132.72   127.96   123.14   118.14   112.87   107.30   100.81   
 93.38    
125869.58 123294.63 122848.71 122398.52 118713.06 99182.01 89169.53 78877.64 64384.62 56515.86 
 42297.79 31877.93 21458.06 11038.19 710.08   587.35   523.94   268.00   213.46   196.34   
 179.21   161.76   103.44   138.88   110.75   62.35    32.98    24.38    19.11    15.98    
 13.59    11.62    9.72     8.29     7.60     7.16     6.87     6.78     6.78     6.58     
 6.28     6.02     5.74     5.50     5.32     5.10     4.85     4.66     4.47     4.24     
 4.02     3.89     3.76     3.62     3.48     3.33     3.19     3.08     2.98     2.90     
 2.81     2.74     2.68     2.61     2.55     2.49     2.46     2.41     2.38     2.33     
 2.28     2.23     2.18     2.17     2.16     2.15     2.14     2.14     2.13     2.14     
 2.15     2.16     2.20     2.24     2.29     2.36     2.43     2.52     2.60     2.71     
 2.83     2.95     3.07     3.20     3.34     3.50     3.67     3.85     4.05     4.29     
 4.53     4.79     5.08     5.39     5.72     6.06     6.42     6.80     7.21     7.64     
 8.12     8.62     9.14     9.70     10.29    10.94    11.63    12.35    13.13    13.97    
 14.90    15.90    16.97    18.09    19.25    20.52    21.88    23.37    24.89    26.46    
 28.13    29.88    31.72    33.62    35.59    37.70    39.96    42.32    44.83    47.57    
 50.58    53.87    57.36    61.35    65.59    70.17    75.06    80.30    85.80    91.59    
 97.51    103.48   109.29   115.23   120.85   126.28   131.39   136.15   140.73   144.90   
 148.80   152.31   155.09   157.19   158.39   158.65   158.09   156.62   154.32   151.41   
 147.96   144.03   139.99   135.83   131.45   126.96   121.89   116.39   110.42   103.78   
 93.38    
125869.58 123331.71 122615.09 122079.85 121313.85 109631.58 94905.40 85167.97 76220.68 61195.44 
 52760.54 40805.42 31876.51 22395.04 14652.33 11123.58 7638.56  4153.53  668.51   540.44   
 349.49   219.48   232.70   165.36   146.90   149.51   128.31   106.86   85.41    64.13    
 63.28    53.15    43.19    42.67    36.76    31.49    31.19    26.25    25.12    23.44    
 23.25    22.41    20.61    18.06    17.46    15.41    14.11    12.97    12.13    10.74    
 9.25     8.53     7.06     5.98     5.44     5.17     4.95     4.60     4.22     3.87     
 3.56     3.29     3.09     2.95     2.83     2.67     2.53     2.39     2.30     2.23     
 2.16     2.12     2.09     2.06     2.04     2.01     1.99     1.97     1.95     1.93     
 1.93     1.93     1.95     2.00     2.08     2.15     2.23     2.33     2.43     2.54     
 2.67     2.81     2.96     3.12     3.30     3.48     3.67     3.87     4.09     4.31     
 4.54     4.78     5.04     5.30     5.57     5.88     6.20     6.56     6.96     7.39     
 7.83     8.31     8.80     9.35     9.93     10.56    11.24    11.97    12.76    13.60    
 14.49    15.46    16.47    17.56    18.72    19.93    21.24    22.64    24.08    25.57    
 27.13    28.77    30.51    32.36    34.33    36.38    38.56    40.97    43.57    46.34    
 49.36    52.69    56.33    60.32    64.57    69.22    74.16    79.28    84.60    90.30    
 96.17    102.04   107.81   113.38   118.74   124.23   129.53   134.51   139.19   143.60   
 147.55   150.83   153.35   155.22   156.42   156.87   156.51   155.45   153.83   151.55   
 148.80   145.67   142.44   138.98   134.91   130.39   125.14   119.82   114.32   108.50   
 93.38    
125869.58 123909.01 122232.99 121612.87 120824.16 119605.79 113217.84 98016.22 86969.94 75816.10 
 67847.16 56129.72 45021.21 40285.44 32263.86 24242.28 16260.58 12463.05 6829.01  1234.78  
 989.93   755.58   491.60   353.79   302.75   245.41   188.19   142.95   109.58   90.72    
 79.47    70.10    63.18    57.11    52.03    47.30    42.57    39.03    35.34    31.76    
 28.43    24.72    21.91    20.22    19.28    18.17    17.28    16.23    15.21    14.06    
 12.90    11.84    10.79    9.77     8.84     8.09     7.55     7.08     6.64     6.20     
 5.81     5.43     5.07     4.75     4.48     4.26     4.04     3.82     3.61     3.40     
 3.17     2.96     2.77     2.60     2.46     2.33     2.20     2.09     2.01     1.92     
 1.84     1.80     1.80     1.83     1.88     1.95     2.03     2.13     2.23     2.33     
 2.45     2.58     2.72     2.87     3.02     3.19     3.35     3.53     3.72     3.92     
 4.13     4.34     4.58     4.84     5.13     5.42     5.72     6.06     6.43     6.83     
 7.25     7.74     8.24     8.76     9.34     9.93     10.57    11.23    11.94    12.70    
 13.54    14.42    15.40    16.38    17.39    18.47    19.64    20.89    22.18    23.57    
 25.05    26.59    28.23    29.97    31.80    33.78    35.95    38.26    40.67    43.37    
 46.37    49.58    53.03    56.79    60.89    65.32    69.98    74.92    80.02    85.43    
 90.92    96.56    102.12   107.78   113.49   119.03   124.32   129.26   133.99   138.18   
 141.89   145.14   147.79   149.88   151.32   152.25   152.54   152.20   151.31   149.96   
 148.20   145.92   143.72   140.82   137.37   133.53   129.30   124.34   119.42   114.48   
 93.38    
125869.58 124511.43 122748.42 121435.91 120532.19 118320.59 115005.74 110964.74 107459.06 96437.39 
 83751.42 73323.38 65566.61 55977.45 48481.28 40611.57 31284.25 25387.50 21976.84 16110.79 
 11937.26 9471.64  7025.81  5607.85  4256.66  1462.54  1101.28  765.69   594.01   426.18   
 318.78   243.58   197.69   169.72   146.58   125.02   108.91   92.85    79.61    68.43    
 58.76    50.54    44.11    38.65    34.11    30.55    27.25    24.60    22.32    19.81    
 16.94    14.36    12.63    11.71    10.98    10.32    9.72     9.22     8.73     8.25     
 7.80     7.42     7.07     6.74     6.47     6.20     5.95     5.74     5.56     5.40     
 5.25     5.09     4.91     4.71     4.47     4.24     3.97     3.68     3.38     3.07     
 2.77     2.43     2.10     1.97     1.96     1.99     2.07     2.15     2.24     2.34     
 2.45     2.56     2.68     2.82     2.96     3.11     3.28     3.45     3.63     3.83     
 4.05     4.27     4.51     4.77     5.05     5.34     5.64     5.98     6.34     6.73     
 7.14     7.57     8.04     8.52     9.02     9.57     10.16    10.79    11.45    12.18    
 12.92    13.71    14.58    15.48    16.43    17.40    18.45    19.61    20.82    22.09    
 23.43    24.83    26.30    27.90    29.65    31.53    33.55    35.70    38.08    40.73    
 43.55    46.69    50.09    53.77    57.78    62.11    66.74    71.53    76.49    81.58    
 87.04    92.51    97.94    103.26   108.51   113.80   118.81   123.57   128.12   132.41   
 136.26   139.70   142.74   145.36   147.44   149.06   150.16   150.69   151.27   150.60   
 149.09   147.55   146.05   143.75   141.04   137.99   134.57   130.72   126.42   122.24   
 93.38    
125869.58 125261.17 124296.15 122923.72 121162.31 118044.51 114519.26 111007.91 107308.56 102276.24 
 97314.97 91897.10 84894.68 77995.07 70737.42 63358.61 56438.43 48275.37 40479.77 33391.74 
 27735.92 24428.02 21125.69 18506.24 16101.11 13879.60 12404.91 11040.08 9897.99  8124.53  
 6743.08  5822.65  5127.00  4416.98  3846.35  3058.37  2665.09  2272.09  1907.72  1478.39  
 1212.50  977.46   727.48   537.83   438.21   361.21   295.05   228.89   163.03   130.15   
 102.98   82.89    68.45    56.96    48.83    42.11    36.55    32.38    28.64    25.47    
 23.02    21.22    19.64    17.85    16.41    14.87    13.25    12.04    11.62    11.39    
 11.22    11.06    10.93    10.70    10.48    10.29    10.16    9.93     9.72     9.38     
 8.67     7.61     6.15     4.45     2.11     1.63     1.67     1.74     1.80     1.88     
 1.95     2.04     2.13     2.24     2.35     2.47     2.61     2.75     2.91     3.07     
 3.24     3.42     3.62     3.83     4.06     4.29     4.55     4.82     5.13     5.45     
 5.78     6.15     6.56     6.99     7.46     7.96     8.47     9.00     9.54     10.14    
 10.78    11.48    12.22    12.97    13.77    14.61    15.57    16.55    17.58    18.67    
 19.83    21.07    22.39    23.79    25.32    26.95    28.74    30.67    32.77    35.06    
 37.67    40.47    43.54    46.91    50.55    54.53    58.75    63.25    67.97    72.97    
 78.13    83.32    88.53    93.98    99.31    104.59   109.83   114.82   119.86   124.59   
 129.12   133.37   137.26   140.91   144.11   146.92   149.21   151.54   152.74   153.27   
 152.80   152.32   151.76   150.16   148.08   145.67   142.84   139.38   135.57   131.78   
 93.38    
125869.58 125788.26 125568.74 124993.52 124006.21 121537.99 118214.98 114611.58 110945.28 105945.81 
 100913.58 95401.08 89284.42 82777.16 75579.47 68031.95 60588.71 53937.99 47945.44 42278.70 
 37311.03 33073.75 29577.58 27073.44 25052.07 23033.81 21280.88 19601.22 18260.81 17047.65 
 15728.76 14655.46 13560.58 12655.37 11787.06 10963.43 10268.88 9601.77  8922.31  8248.01  
 7666.09  7061.78  6528.84  5971.58  5461.73  5006.48  4603.85  4220.00  3835.11  3464.94  
 3154.25  2872.26  2616.32  2360.81  2149.01  1962.58  1795.31  1643.27  1513.01  1381.25  
 1261.57  1148.46  1047.84  948.56   859.96   774.43   697.12   622.32   556.03   492.67   
 433.37   382.57   336.90   295.65   260.68   225.71   190.81   162.97   141.02   122.38   
 105.38   90.22    77.67    66.52    55.59    41.89    15.18    10.29    3.38     1.20     
 1.03     0.92     0.91     0.83     0.84     0.84     0.85     0.86     0.88     0.90     
 0.92     0.93     0.95     0.97     0.99     1.01     1.04     1.07     1.10     1.13     
 1.16     1.20     1.24     1.28     1.33     1.39     1.45     1.50     1.56     1.64     
 1.72     1.81     1.91     2.02     2.14     2.27     2.41     2.57     2.73     2.91     
 3.11     3.33     3.57     3.84     4.12     4.43     4.78     5.16     5.56     6.04     
 6.56     7.12     7.72     8.39     9.10     9.89     10.74    11.66    12.61    13.65    
 14.74    15.87    17.09    18.38    19.74    21.18    22.65    24.27    25.99    27.81    
 29.67    31.65    33.68    35.87    38.16    40.60    43.17    46.12    48.89    52.67    
 55.81    59.43    63.89    68.68    73.68    78.83    84.11    89.58    95.32    101.14   
 93.38    
125869.58 126606.52 127111.96 127147.58 126608.36 124788.24 121956.48 118576.44 114993.25 110758.69 
 106173.54 100812.63 95013.04 88646.89 81736.85 74505.24 67607.42 61156.34 55061.98 49212.53 
 43761.39 39363.65 35926.23 32933.03 30546.06 28405.91 26588.94 24989.06 23441.82 22009.89 
 20662.22 19418.29 18286.23 17198.75 16186.94 15262.99 14351.65 13539.55 12777.90 12081.82 
 11368.10 10654.21 9996.10  9359.80  8732.52  8141.08  7580.07  7017.72  6511.22  6051.01  
 5608.84  5202.92  4831.86  4494.44  4197.50  3935.45  3688.58  3464.73  3272.43  3092.84  
 2907.32  2742.71  2586.24  2431.45  2283.10  2142.84  2003.85  1872.11  1742.84  1616.01  
 1497.23  1390.17  1286.31  1191.01  1096.26  1001.52  919.92   844.22   771.57   704.82   
 642.10   584.27   529.71   479.91   438.09   399.28   364.78   335.20   309.30   287.49   
 269.36   252.04   234.20   218.00   203.07   189.88   177.35   166.26   156.17   146.18   
 137.36   129.29   121.88   114.48   108.06   102.02   96.81    91.95    87.41    83.61    
 79.83    76.36    73.42    70.32    66.98    63.83    60.93    57.82    54.93    52.00    
 49.29    46.34    43.54    41.05    38.31    35.44    32.54    29.52    26.44    23.08    
 19.33    14.88    11.10    8.34     6.42     4.97     3.77     3.44     3.61     3.97     
 4.35     4.78     5.25     5.77     6.33     6.93     7.55     8.24     8.97     9.74     
 10.55    11.40    12.29    13.25    14.25    15.29    16.42    17.63    18.91    20.27    
 21.71    23.28    24.95    26.72    28.73    30.90    33.25    35.79    38.57    42.19    
 45.29    49.16    53.15    57.71    62.80    68.21    73.97    80.11    86.43    92.85    
 93.38    
125869.58 127368.46 128536.73 129204.33 129398.01 129031.28 127835.66 125873.95 123410.63 120373.42 
 116568.06 112118.52 106755.29 100139.73 92812.34 85582.18 78204.71 70766.25 63838.42 57547.82 
 51943.23 47208.33 43341.35 40177.30 37493.24 34861.00 32593.45 30358.11 28491.25 26656.05 
 25130.62 23605.19 22081.10 20683.97 19491.18 18354.78 17268.24 16290.45 15374.51 14429.39 
 13558.23 12762.49 11992.65 11292.84 10637.51 9932.98  9321.67  8676.75  8077.82  7498.13  
 6981.18  6476.33  6008.16  5554.53  5146.93  4799.53  4481.12  4204.35  3949.92  3718.71  
 3514.56  3324.46  3134.83  2950.26  2785.21  2620.17  2455.31  2308.34  2162.79  2020.46  
 1883.87  1749.96  1615.67  1493.66  1378.59  1266.57  1160.85  1061.61  969.94   885.98   
 802.54   723.64   655.25   594.97   540.18   489.78   448.67   417.38   388.89   358.61   
 338.77   320.05   301.30   283.57   267.85   253.87   240.77   227.70   216.73   206.50   
 197.34   189.19   181.49   174.63   167.85   162.29   156.47   151.29   146.52   142.16   
 138.10   134.42   130.81   126.99   123.56   120.39   117.19   114.10   110.88   107.97   
 105.26   102.71   100.27   97.80    95.30    92.88    90.46    87.94    85.63    83.12    
 80.41    78.13    75.20    72.68    70.22    67.80    65.23    62.13    59.22    56.52    
 53.53    50.68    47.45    44.12    41.64    37.85    33.73    31.41    16.51    10.72    
 8.92     8.55     9.29     10.21    11.19    12.20    13.26    14.37    15.57    16.84    
 18.15    19.43    20.78    22.31    24.02    25.88    27.89    30.13    32.52    35.21    
 38.22    41.93    45.68    50.48    55.30    60.67    66.58    72.99    79.97    86.89    
 93.38    
125869.58 127893.49 129501.89 130936.12 132214.12 133257.61 133941.57 133726.05 132018.84 129056.27 
 125320.67 120792.57 115408.26 108952.82 101765.95 94096.74 86317.95 78533.09 70886.91 63515.67 
 57309.09 52208.09 48212.06 44797.08 41668.80 38856.53 36273.16 33936.27 31753.37 29663.16 
 27859.31 26085.93 24419.92 22917.54 21539.62 20277.88 19072.67 17899.68 16841.06 15756.65 
 14711.60 13766.05 12809.56 11928.32 11117.65 10307.60 9590.26  8965.86  8381.26  7824.36  
 7302.51  6848.61  6434.36  6051.84  5677.66  5328.49  4998.04  4695.92  4427.04  4169.29  
 3937.01  3689.88  3468.08  3267.43  3071.01  2885.48  2701.25  2525.49  2351.40  2184.57  
 2028.68  1883.33  1746.50  1610.56  1480.66  1362.48  1244.00  1137.32  1030.75  937.32   
 851.81   773.21   697.87   630.68   572.22   524.63   481.73   445.59   408.59   380.86   
 361.26   342.69   324.21   306.60   291.20   276.99   265.43   255.29   246.80   239.32   
 232.11   225.72   219.95   214.75   209.63   204.61   200.33   196.44   192.81   189.32   
 185.91   182.76   179.70   176.21   173.41   170.57   167.82   165.25   162.54   159.87   
 157.17   154.59   151.92   149.35   146.16   143.41   140.39   137.42   134.46   131.53   
 128.03   124.52   121.60   118.50   115.34   111.84   108.65   105.40   101.86   97.90    
 94.13    89.59    85.21    80.91    77.61    74.99    74.22    70.22    66.37    62.94    
 59.06    55.39    51.99    47.71    44.87    42.37    25.97    17.12    15.20    16.64    
 16.94    17.57    19.13    20.85    22.69    24.61    26.45    28.24    30.33    32.70    
 35.36    38.42    41.92    45.87    50.34    55.36    61.37    67.73    74.56    81.76    
 93.38    
