IESNA:LM-63-2002
[TEST] 1
[TESTLAB] AOK
[TESTDATE] 2022-06-09
[ISSUEDATE] 2022-06-09 19:17:38
[NEARFIELD] 
[LAMPPOSITION] 0,0
[OTHER] EVERFINE GO-2000A_V1 SYSTEM
[MANUFAC] AOK
[LUMCAT] A
[LUMINAIRE] AOK-400WiSF-NV-S35-00-5070-2030D-P
[LAMPCAT] B
[LAMP] 3535
[BALLAST] E
[BALLASTCAT] F
[OTHER] 
[OTHER] Gamma(deg)    Fz(lm)      Ft(lm)     %Lum    %Lamp
[OTHER]   0- 10     15832.47    15832.47    31.10    31.10
[OTHER]  10- 20     17552.63    33385.10    65.59    65.59
[OTHER]  20- 30      7219.41    40604.52    79.77    79.77
[OTHER]  30- 40      3731.09    44335.60    87.10    87.10
[OTHER]  40- 50      2327.88    46663.48    91.67    91.67
[OTHER]  50- 60      1755.65    48419.13    95.12    95.12
[OTHER]  60- 70      1183.59    49602.73    97.45    97.45
[OTHER]  70- 80       565.94    50168.66    98.56    98.56
[OTHER]  80- 90       232.76    50401.43    99.02    99.02
[OTHER]  90-100       124.34    50525.77    99.26    99.26
[OTHER] 100-110        90.30    50616.07    99.44    99.44
[OTHER] 110-120        73.46    50689.53    99.58    99.58
[OTHER] 120-130        55.91    50745.44    99.69    99.69
[OTHER] 130-140        41.08    50786.52    99.77    99.77
[OTHER] 140-150        34.56    50821.08    99.84    99.84
[OTHER] 150-160        37.44    50858.52    99.92    99.92
[OTHER] 160-170        31.18    50889.70    99.98    99.98
[OTHER] 170-180        11.50    50901.20   100.00   100.00
[OTHER] 
TILT=NONE
1 50901 1 181 25 1 2 0.150 0.200 0.000
1.000 1 391.968
0.0    1.0    2.0    3.0    4.0    5.0    6.0    7.0    8.0    9.0    
 10.0   11.0   12.0   13.0   14.0   15.0   16.0   17.0   18.0   19.0   
 20.0   21.0   22.0   23.0   24.0   25.0   26.0   27.0   28.0   29.0   
 30.0   31.0   32.0   33.0   34.0   35.0   36.0   37.0   38.0   39.0   
 40.0   41.0   42.0   43.0   44.0   45.0   46.0   47.0   48.0   49.0   
 50.0   51.0   52.0   53.0   54.0   55.0   56.0   57.0   58.0   59.0   
 60.0   61.0   62.0   63.0   64.0   65.0   66.0   67.0   68.0   69.0   
 70.0   71.0   72.0   73.0   74.0   75.0   76.0   77.0   78.0   79.0   
 80.0   81.0   82.0   83.0   84.0   85.0   86.0   87.0   88.0   89.0   
 90.0   91.0   92.0   93.0   94.0   95.0   96.0   97.0   98.0   99.0   
 100.0  101.0  102.0  103.0  104.0  105.0  106.0  107.0  108.0  109.0  
 110.0  111.0  112.0  113.0  114.0  115.0  116.0  117.0  118.0  119.0  
 120.0  121.0  122.0  123.0  124.0  125.0  126.0  127.0  128.0  129.0  
 130.0  131.0  132.0  133.0  134.0  135.0  136.0  137.0  138.0  139.0  
 140.0  141.0  142.0  143.0  144.0  145.0  146.0  147.0  148.0  149.0  
 150.0  151.0  152.0  153.0  154.0  155.0  156.0  157.0  158.0  159.0  
 160.0  161.0  162.0  163.0  164.0  165.0  166.0  167.0  168.0  169.0  
 170.0  171.0  172.0  173.0  174.0  175.0  176.0  177.0  178.0  179.0  
 180.0  
0.0    15.0   30.0   45.0   60.0   75.0   90.0   105.0  120.0  135.0  
 150.0  165.0  180.0  195.0  210.0  225.0  240.0  255.0  270.0  285.0  
 300.0  315.0  330.0  345.0  360.0  
212779.61 211878.12 209558.38 204668.01 194835.96 159122.38 129169.33 102945.31 73567.27 54213.13 
 34512.63 24645.25 14360.42 9598.97  4897.91  196.85   102.37   54.77    43.17    32.85    
 27.26    22.72    18.89    16.47    14.41    13.17    12.13    10.81    9.73     9.19     
 8.78     8.52     8.23     7.69     6.71     5.90     5.54     5.42     5.36     5.22     
 5.34     5.42     5.36     4.93     4.81     4.57     4.54     4.72     4.85     4.76     
 4.55     4.36     4.28     4.26     4.23     4.21     4.22     4.06     3.96     3.86     
 3.74     3.67     3.54     3.38     3.26     3.13     3.01     2.86     2.76     2.66     
 2.59     2.52     2.46     2.40     2.36     2.33     2.33     2.32     2.33     2.34     
 2.37     2.41     2.44     2.49     2.60     2.79     2.92     3.03     3.11     3.19     
 3.25     3.31     3.39     3.43     3.45     3.45     3.48     3.55     3.63     3.75     
 3.92     4.09     4.29     4.51     4.76     5.02     5.29     5.55     5.83     6.09     
 6.34     6.60     6.86     7.12     7.38     7.66     7.97     8.30     8.67     9.07     
 9.50     9.95     10.42    10.91    11.42    11.97    12.58    13.23    13.89    14.58    
 15.30    16.06    16.84    17.64    18.51    19.43    20.48    21.69    23.13    24.75    
 26.55    28.62    30.92    33.57    36.51    39.86    43.65    47.99    53.14    59.10    
 66.02    73.78    82.54    92.20    102.19   112.72   123.54   134.61   145.50   156.28   
 166.68   176.57   185.61   193.08   198.96   202.92   204.97   205.12   203.51   200.38   
 196.01   190.44   184.05   177.00   169.66   161.86   154.03   146.20   137.76   128.37   
 117.40   
212779.61 212757.02 211011.29 207437.51 201234.92 176636.78 141987.62 118238.49 92577.99 64974.99 
 51087.23 41036.65 30986.06 20935.48 10884.90 925.95   882.72   718.39   523.16   327.92   
 134.36   158.25   174.09   117.38   114.33   117.96   99.91    62.14    55.87    41.09    
 25.39    17.70    15.05    12.97    11.47    9.61     8.14     7.00     6.36     5.78     
 5.40     5.12     5.04     5.07     5.01     4.81     4.61     4.45     4.31     4.13     
 3.91     3.74     3.63     3.47     3.36     3.25     3.14     3.03     2.91     2.81     
 2.72     2.65     2.56     2.47     2.41     2.36     2.31     2.28     2.23     2.21     
 2.17     2.12     2.07     2.03     2.00     1.97     1.96     1.96     1.96     1.96     
 1.97     1.99     2.01     2.05     2.09     2.14     2.20     2.26     2.32     2.38     
 2.46     2.54     2.62     2.71     2.81     2.93     3.05     3.19     3.34     3.50     
 3.68     3.87     4.07     4.30     4.53     4.77     5.02     5.27     5.52     5.75     
 6.00     6.25     6.51     6.78     7.07     7.37     7.70     8.03     8.42     8.81     
 9.25     9.74     10.24    10.76    11.29    11.85    12.46    13.11    13.75    14.45    
 15.17    15.90    16.67    17.47    18.34    19.35    20.49    21.81    23.27    24.97    
 26.91    29.06    31.42    34.10    37.08    40.53    44.41    48.92    54.13    60.25    
 67.22    75.11    83.60    93.01    102.90   113.12   123.70   134.07   144.78   155.26   
 165.38   174.98   183.40   190.56   195.81   199.21   200.77   200.57   198.71   195.45   
 191.04   185.46   179.30   172.53   165.41   158.46   150.13   141.75   133.12   124.16   
 117.40   
212779.61 213101.49 211700.09 209300.33 205004.62 197127.91 166552.18 138258.46 114582.19 91295.83 
 65108.22 52303.60 34067.00 26248.75 15963.48 7488.85  4319.01  1202.95  1046.53  927.05   
 765.85   438.63   270.01   205.36   221.11   191.35   177.94   136.84   110.87   85.10    
 74.95    72.33    57.27    47.61    41.05    35.17    31.68    26.16    23.38    20.22    
 17.49    15.11    14.00    13.49    12.73    11.45    10.87    9.82     9.19     8.37     
 7.63     6.98     6.35     5.52     5.01     4.72     4.52     4.31     4.02     3.74     
 3.49     3.25     3.07     2.95     2.84     2.73     2.59     2.44     2.32     2.22     
 2.14     2.07     2.02     1.99     1.95     1.92     1.88     1.85     1.81     1.79     
 1.77     1.77     1.77     1.79     1.84     1.90     1.97     2.04     2.12     2.20     
 2.30     2.40     2.51     2.64     2.77     2.91     3.06     3.23     3.38     3.55     
 3.73     3.90     4.09     4.28     4.47     4.67     4.87     5.09     5.33     5.56     
 5.82     6.09     6.38     6.67     6.98     7.30     7.65     8.00     8.38     8.78     
 9.19     9.61     10.06    10.54    11.03    11.52    12.05    12.63    13.24    13.90    
 14.61    15.39    16.28    17.28    18.38    19.67    21.11    22.70    24.50    26.50    
 28.70    31.17    33.95    37.11    40.64    44.70    49.36    54.43    60.24    66.86    
 74.11    81.86    90.04    98.70    108.15   117.73   127.41   136.96   146.55   156.33   
 165.23   172.95   179.34   184.69   188.53   190.78   191.56   190.91   188.96   185.91   
 181.66   177.31   171.65   165.56   159.01   152.26   145.10   137.82   130.41   123.13   
 117.40   
212779.61 213877.36 213233.77 211886.61 209536.82 204413.40 196702.56 177004.94 147988.67 126647.39 
 105378.90 87766.88 64911.88 49935.48 41105.80 31392.44 21694.49 13673.09 10957.53 6219.78  
 1516.85  1339.90  937.85   645.52   444.16   354.98   265.80   177.05   134.05   108.81   
 91.91    79.68    70.43    62.84    56.61    50.59    45.27    40.66    36.22    32.60    
 29.29    26.55    24.11    21.60    19.10    16.13    14.22    12.80    11.78    10.88    
 10.08    9.38     8.73     8.15     7.52     7.04     6.60     6.23     5.88     5.56     
 5.28     5.01     4.73     4.47     4.24     4.05     3.87     3.70     3.52     3.34     
 3.14     2.94     2.75     2.58     2.43     2.30     2.16     2.03     1.93     1.83     
 1.73     1.64     1.64     1.65     1.70     1.75     1.82     1.89     1.97     2.07     
 2.17     2.27     2.38     2.49     2.62     2.75     2.89     3.04     3.19     3.35     
 3.50     3.66     3.84     4.03     4.24     4.45     4.65     4.88     5.11     5.35     
 5.59     5.85     6.13     6.41     6.70     7.00     7.31     7.62     7.95     8.29     
 8.66     9.06     9.48     9.92     10.41    10.92    11.49    12.13    12.82    13.59    
 14.46    15.46    16.54    17.72    19.04    20.53    22.18    24.00    26.00    28.27    
 30.89    33.77    37.00    40.61    44.70    49.28    54.27    59.78    65.73    72.28    
 79.30    86.72    94.40    102.73   111.20   119.78   128.35   136.51   144.53   151.88   
 158.57   164.40   169.29   173.24   176.04   177.80   178.48   178.15   177.12   174.58   
 171.28   167.62   163.60   159.05   154.17   148.95   143.36   137.63   132.04   126.46   
 117.40   
212779.61 213917.44 213871.07 212622.84 209884.03 204655.61 197084.55 189908.35 181499.51 169703.72 
 151519.48 126782.78 106192.07 92488.64 76641.67 63102.89 52697.95 38670.52 29250.79 23369.02 
 17666.09 11236.55 8928.87  6668.61  4754.35  3962.66  1545.71  1198.31  872.27   546.23   
 389.34   287.98   217.53   176.98   146.76   123.72   105.72   87.77    75.31    64.27    
 55.36    47.99    41.93    37.09    33.03    29.50    26.78    24.27    22.27    20.41    
 18.54    16.94    15.33    13.61    11.90    10.40    9.50     8.88     8.33     7.85     
 7.51     7.24     7.01     6.76     6.55     6.36     6.17     6.01     5.86     5.71     
 5.57     5.41     5.23     5.03     4.77     4.50     4.18     3.83     3.46     3.08     
 2.72     2.31     1.93     1.81     1.81     1.83     1.89     1.96     2.03     2.12     
 2.21     2.30     2.40     2.52     2.65     2.77     2.91     3.06     3.22     3.39     
 3.56     3.75     3.93     4.14     4.35     4.56     4.78     5.01     5.25     5.48     
 5.73     5.98     6.24     6.50     6.78     7.08     7.37     7.67     8.00     8.36     
 8.73     9.12     9.55     10.03    10.52    11.09    11.72    12.44    13.22    14.08    
 15.02    16.02    17.15    18.42    19.84    21.39    23.21    25.27    27.55    30.20    
 33.14    36.47    40.27    44.46    49.05    54.14    59.52    65.30    71.43    78.07    
 84.96    92.00    99.10    106.28   113.82   121.12   128.15   134.71   140.80   146.69   
 151.96   156.49   160.23   163.27   165.73   167.31   168.09   168.77   168.18   166.87   
 164.89   162.10   159.15   155.74   152.28   148.39   144.47   140.04   135.57   130.66   
 117.40   
212779.61 213837.92 214092.40 213323.50 210522.12 205275.52 198435.44 191854.18 183529.68 174780.92 
 165557.72 156000.49 143761.41 131072.87 117789.38 104209.31 90987.93 77417.66 65598.46 53348.49 
 43053.93 33189.47 27391.23 21615.78 18549.71 16122.15 13757.12 11245.21 9862.85  8508.85  
 7426.00  6119.52  4767.29  3832.89  3139.35  2607.36  2076.11  1629.51  1340.21  1129.89  
 943.14   759.26   620.50   500.67   395.63   314.56   265.22   215.87   166.63   128.46   
 102.29   82.47    67.53    56.64    48.11    41.39    36.51    32.26    28.87    26.13    
 23.81    22.03    20.67    19.45    18.29    17.29    16.18    15.18    14.08    13.23    
 12.90    12.65    12.50    12.35    12.19    12.02    11.82    11.64    11.40    10.93    
 9.92     8.34     6.28     4.03     1.57     1.48     1.53     1.58     1.64     1.69     
 1.76     1.84     1.91     2.01     2.11     2.21     2.33     2.46     2.60     2.74     
 2.89     3.05     3.22     3.41     3.59     3.79     4.00     4.21     4.44     4.67     
 4.91     5.16     5.43     5.68     5.96     6.24     6.54     6.84     7.15     7.49     
 7.86     8.26     8.71     9.19     9.69     10.24    10.86    11.53    12.27    13.08    
 13.97    14.97    16.06    17.29    18.64    20.24    22.05    24.20    26.51    29.26    
 32.44    35.93    39.83    44.10    48.79    53.88    59.26    64.93    70.81    77.01    
 83.26    89.71    96.00    102.49   108.86   115.09   121.28   127.10   132.93   138.29   
 143.37   148.01   152.26   156.19   159.53   162.37   165.00   166.56   167.37   167.54   
 167.00   165.80   163.87   161.36   158.39   155.15   151.72   147.82   143.53   138.71   
 117.40   
212779.61 213193.76 213076.25 212210.31 209485.91 204581.50 197986.97 191511.02 184009.35 175616.96 
 166962.06 158042.61 147956.39 137128.35 124295.04 109702.23 94221.68 80247.61 68064.48 58056.66 
 49082.77 41802.80 35935.35 31332.33 27617.70 24739.84 21868.22 19522.43 17627.80 15969.97 
 14455.39 12945.74 11489.01 10169.94 8954.15  7883.95  6905.05  6119.21  5503.57  4975.02  
 4554.87  4230.17  3942.03  3666.98  3443.73  3288.05  3125.82  2993.00  2847.70  2673.00  
 2498.02  2300.49  2108.35  1932.83  1773.78  1632.68  1494.41  1378.21  1263.79  1152.15  
 1053.95  962.21   877.60   799.74   725.30   659.10   594.14   535.23   480.23   430.27   
 383.30   338.94   301.69   268.25   234.81   201.44   175.28   152.26   132.44   115.72   
 99.92    86.48    74.96    64.41    54.50    25.01    17.27    13.12    6.53     2.35     
 1.47     1.23     0.89     0.88     0.87     0.87     0.88     0.88     0.88     0.89     
 0.90     0.90     0.91     0.91     0.92     0.93     0.95     0.98     1.00     1.03     
 1.06     1.10     1.13     1.17     1.21     1.24     1.28     1.33     1.38     1.43     
 1.49     1.55     1.62     1.70     1.79     1.89     1.99     2.11     2.24     2.39     
 2.55     2.74     2.95     3.19     3.46     3.77     4.13     4.55     5.02     5.58     
 6.17     6.84     7.58     8.39     9.27     10.24    11.29    12.36    13.52    14.70    
 15.91    17.16    18.50    19.88    21.28    22.73    24.30    25.96    27.75    29.60    
 31.52    33.60    35.72    38.03    40.50    43.22    46.13    49.94    53.51    57.74    
 62.36    67.46    73.14    79.28    85.67    92.26    98.99    105.85   112.33   118.88   
 117.40   
212779.61 213186.01 212870.13 211642.78 208935.79 204620.77 198259.64 191770.93 184850.92 177313.27 
 168375.10 158850.48 147574.34 135908.70 123063.09 110028.65 96447.13 83218.79 70933.83 59968.51 
 50752.70 43796.59 38267.67 34126.59 30535.53 27443.54 25137.56 23122.47 21159.76 19360.82 
 17718.82 16090.23 14473.72 12968.92 11697.79 10428.63 9159.47  8177.73  7383.25  6757.09  
 6233.93  5812.71  5453.43  5148.45  4893.26  4678.10  4471.77  4290.18  4122.14  3970.38  
 3830.45  3682.97  3530.16  3371.25  3202.17  3034.63  2862.65  2689.82  2532.36  2375.01  
 2233.04  2100.45  1980.09  1867.51  1758.23  1649.39  1546.62  1448.75  1351.32  1255.92  
 1172.45  1089.08  1005.70  928.01   853.33   786.42   724.89   662.92   605.74   552.21   
 503.24   457.84   415.55   378.18   344.75   312.87   286.05   263.24   244.16   227.89   
 212.83   197.74   184.55   172.74   162.20   151.78   142.64   134.68   127.42   120.16   
 112.89   106.40   101.38   96.55    91.93    88.19    84.62    80.69    77.82    75.21    
 72.40    69.92    67.48    64.56    61.94    59.43    56.53    54.19    51.95    49.56    
 47.20    44.65    42.35    39.93    37.16    34.32    31.10    27.74    23.82    19.40    
 14.62    10.33    7.68     5.85     4.49     3.28     2.97     3.12     3.50     3.93     
 4.44     5.00     5.59     6.29     7.07     7.92     8.81     9.74     10.73    11.77    
 12.83    13.89    14.99    16.12    17.26    18.42    19.67    20.94    22.24    23.64    
 25.13    26.70    28.38    30.19    32.11    34.24    36.61    39.38    42.64    47.07    
 51.18    56.82    62.80    69.37    76.51    84.25    92.27    100.35   108.24   116.17   
 117.40   
212779.61 213020.70 212233.71 210667.19 208212.00 204690.70 199859.08 193835.14 186544.93 177018.28 
 165822.61 152949.45 139076.64 125209.76 111868.99 99435.37 87286.48 75427.92 64944.35 56374.91 
 49169.82 43318.99 38665.46 35005.26 31841.90 29121.24 26621.00 24320.92 22024.14 19990.44 
 17959.52 16015.67 14114.37 12469.85 11023.46 9744.80  8685.27  7839.15  7163.49  6662.69  
 6269.13  5941.23  5666.33  5425.53  5213.93  5023.74  4841.42  4680.10  4526.93  4383.14  
 4250.62  4120.58  3995.65  3862.22  3725.49  3577.87  3427.34  3267.40  3094.18  2919.96  
 2762.79  2620.48  2478.23  2340.95  2216.86  2086.30  1957.82  1836.76  1717.50  1603.88  
 1488.47  1374.95  1267.59  1168.85  1078.12  988.68   900.32   817.33   739.74   667.59   
 602.74   543.32   490.52   443.87   401.83   365.81   337.13   312.66   292.47   275.46   
 260.35   244.53   228.74   216.52   206.19   196.73   187.70   179.43   171.71   164.37   
 158.17   152.30   146.97   141.97   137.78   133.33   129.56   126.09   122.89   119.98   
 117.26   114.94   112.51   109.85   107.59   105.33   103.34   101.22   99.30    97.31    
 95.32    93.65    92.05    90.10    88.16    86.31    84.19    82.16    80.27    78.30    
 76.61    74.39    72.59    70.68    68.75    66.71    64.24    61.67    59.01    56.11    
 52.81    49.24    46.23    43.26    39.52    35.82    33.05    15.98    11.33    9.72     
 10.10    11.16    12.43    13.73    15.06    16.42    17.81    19.21    20.65    22.11    
 23.59    25.06    26.59    28.23    29.95    31.79    33.81    36.04    38.53    41.53    
 45.28    49.94    55.79    61.72    69.58    77.89    86.82    96.07    105.52   114.89   
 117.40   
212779.61 212437.22 210800.54 208542.69 205653.21 201824.91 196312.83 187715.61 176015.55 161220.55 
 144769.03 127954.32 112647.02 99493.64 88463.79 78624.83 70400.57 62909.99 55957.09 50157.80 
 44959.55 40646.33 36558.94 32846.06 29187.87 25835.49 22509.34 19473.37 16736.08 14417.45 
 12633.50 11603.76 10580.95 9558.14  8953.59  8423.74  7949.96  7538.55  7136.36  6799.35  
 6469.01  6163.21  5883.35  5641.87  5410.79  5210.33  5024.61  4844.23  4665.50  4495.63  
 4312.25  4162.78  4034.11  3908.86  3784.04  3647.17  3511.40  3376.44  3238.28  3100.49  
 2957.07  2817.21  2682.21  2546.86  2415.92  2276.59  2143.61  2009.48  1879.76  1744.45  
 1609.50  1491.04  1377.84  1260.76  1156.07  1051.50  946.93   851.17   770.06   696.65   
 631.44   570.24   514.09   465.13   423.35   388.16   357.66   332.44   311.89   295.71   
 280.78   265.77   252.19   240.74   230.17   221.50   213.90   207.60   202.10   197.16   
 192.58   188.34   184.72   181.36   178.26   175.38   172.72   170.36   168.09   165.99   
 163.86   161.85   159.54   157.62   155.57   153.78   151.86   149.94   148.11   146.28   
 144.31   142.01   139.74   137.16   135.02   133.01   130.92   128.07   125.21   122.69   
 120.13   117.55   114.82   112.23   109.27   106.51   103.88   101.09   98.20    95.52    
 92.62    89.45    87.04    84.58    82.06    79.89    75.41    72.26    69.41    65.87    
 62.49    55.91    52.30    50.22    47.99    27.13    20.09    19.54    21.01    21.66    
 22.17    23.82    25.77    27.86    30.02    32.21    34.29    36.47    38.91    41.57    
 44.70    48.37    52.85    58.29    64.53    72.07    81.36    91.46    101.98   112.48   
