IESNA:LM-63-2002
[TEST] 1
[TESTLAB] AOK
[TESTDATE] 2022-06-25
[ISSUEDATE] 2022-07-02 14:56:09
[NEARFIELD] 
[LAMPPOSITION] 0,0
[OTHER] EVERFINE GO-2000A_V1 SYSTEM
[MANUFAC] AOK
[LUMCAT] A
[LUMINAIRE] AOK-800WiSF-HV-S35-00-5070-2030D-P
[LAMPCAT] B
[LAMP] 3535
[BALLAST] E
[BALLASTCAT] F
[OTHER] 
[OTHER] Gamma(deg)    Fz(lm)      Ft(lm)     %Lum    %Lamp
[OTHER]   0- 10     32846.88    32846.88    30.44    30.44
[OTHER]  10- 20     38603.00    71449.88    66.22    66.22
[OTHER]  20- 30     16546.89    87996.77    81.55    81.55
[OTHER]  30- 40      7286.21    95282.98    88.30    88.30
[OTHER]  40- 50      4345.91    99628.89    92.33    92.33
[OTHER]  50- 60      3269.32   102898.21    95.36    95.36
[OTHER]  60- 70      2206.59   105104.80    97.41    97.41
[OTHER]  70- 80      1202.58   106307.38    98.52    98.52
[OTHER]  80- 90       565.41   106872.79    99.04    99.04
[OTHER]  90-100       306.33   107179.12    99.33    99.33
[OTHER] 100-110       204.80   107383.92    99.52    99.52
[OTHER] 110-120       149.32   107533.24    99.66    99.66
[OTHER] 120-130       105.03   107638.27    99.75    99.75
[OTHER] 130-140        69.40   107707.67    99.82    99.82
[OTHER] 140-150        52.41   107760.08    99.87    99.87
[OTHER] 150-160        60.33   107820.41    99.92    99.92
[OTHER] 160-170        61.22   107881.63    99.98    99.98
[OTHER] 170-180        22.75   107904.38   100.00   100.00
[OTHER] 
TILT=NONE
1 1.079e+005 1 181 25 1 2 0.150 0.200 0.000
1.000 1 818.778
0.0    1.0    2.0    3.0    4.0    5.0    6.0    7.0    8.0    9.0    
 10.0   11.0   12.0   13.0   14.0   15.0   16.0   17.0   18.0   19.0   
 20.0   21.0   22.0   23.0   24.0   25.0   26.0   27.0   28.0   29.0   
 30.0   31.0   32.0   33.0   34.0   35.0   36.0   37.0   38.0   39.0   
 40.0   41.0   42.0   43.0   44.0   45.0   46.0   47.0   48.0   49.0   
 50.0   51.0   52.0   53.0   54.0   55.0   56.0   57.0   58.0   59.0   
 60.0   61.0   62.0   63.0   64.0   65.0   66.0   67.0   68.0   69.0   
 70.0   71.0   72.0   73.0   74.0   75.0   76.0   77.0   78.0   79.0   
 80.0   81.0   82.0   83.0   84.0   85.0   86.0   87.0   88.0   89.0   
 90.0   91.0   92.0   93.0   94.0   95.0   96.0   97.0   98.0   99.0   
 100.0  101.0  102.0  103.0  104.0  105.0  106.0  107.0  108.0  109.0  
 110.0  111.0  112.0  113.0  114.0  115.0  116.0  117.0  118.0  119.0  
 120.0  121.0  122.0  123.0  124.0  125.0  126.0  127.0  128.0  129.0  
 130.0  131.0  132.0  133.0  134.0  135.0  136.0  137.0  138.0  139.0  
 140.0  141.0  142.0  143.0  144.0  145.0  146.0  147.0  148.0  149.0  
 150.0  151.0  152.0  153.0  154.0  155.0  156.0  157.0  158.0  159.0  
 160.0  161.0  162.0  163.0  164.0  165.0  166.0  167.0  168.0  169.0  
 170.0  171.0  172.0  173.0  174.0  175.0  176.0  177.0  178.0  179.0  
 180.0  
0.0    15.0   30.0   45.0   60.0   75.0   90.0   105.0  120.0  135.0  
 150.0  165.0  180.0  195.0  210.0  225.0  240.0  255.0  270.0  285.0  
 300.0  315.0  330.0  345.0  360.0  
447105.38 445762.28 439287.76 426534.92 376208.89 332434.28 285842.26 234188.57 185915.69 141485.09 
 113547.24 85801.34 58055.45 50652.08 44948.20 40393.10 36684.10 27238.37 21408.14 17154.35 
 11938.32 7605.83  3283.85  819.28   93.68    58.00    29.52    22.18    19.39    18.15    
 17.04    15.57    14.56    13.50    12.36    11.16    10.20    9.37     9.03     8.86     
 8.71     8.38     8.31     7.93     7.44     7.03     6.76     6.34     5.98     5.68     
 5.39     5.15     5.03     4.89     4.76     4.57     4.47     4.39     4.37     4.34     
 4.32     4.29     4.27     4.26     4.27     4.25     4.23     4.22     4.20     4.18     
 4.16     4.13     4.10     4.07     4.02     4.00     3.98     3.94     3.91     3.89     
 3.90     3.90     3.90     3.91     3.91     3.92     3.96     4.02     4.10     4.20     
 4.30     4.43     4.57     4.72     4.88     5.06     5.24     5.44     5.64     5.87     
 6.10     6.33     6.59     6.86     7.15     7.44     7.73     8.05     8.37     8.71     
 9.06     9.43     9.80     10.20    10.61    11.06    11.52    11.98    12.48    12.99    
 13.54    14.10    14.70    15.34    15.98    16.65    17.41    18.21    19.06    19.97    
 20.96    22.05    23.32    24.74    26.41    28.38    30.71    33.48    36.67    40.27    
 44.24    48.60    53.56    58.94    64.84    71.29    78.50    86.82    96.45    107.60   
 120.50   134.91   150.83   168.71   187.64   207.65   228.17   250.26   272.36   292.82   
 312.36   331.33   348.56   363.14   374.97   383.05   387.86   388.99   386.76   381.37   
 373.84   364.55   353.95   342.15   329.45   315.14   299.39   282.71   264.60   245.25   
 224.91   
447105.38 446826.12 442111.65 432371.32 400918.17 352414.81 311041.14 264441.04 217799.61 165745.82 
 126626.42 93930.61 64248.28 54309.93 47396.04 41862.39 37644.95 33846.37 26799.45 19779.20 
 16327.69 10980.23 6377.59  4400.35  2423.12  462.01   306.09   151.56   143.58   105.47   
 76.24    99.60    58.92    35.08    26.29    22.03    19.52    17.97    16.82    15.90    
 15.28    14.36    13.39    12.44    11.57    10.63    9.59     8.49     7.82     7.23     
 6.76     6.49     6.24     5.97     5.68     5.48     5.60     5.80     5.81     5.75     
 5.62     5.47     5.31     5.15     4.99     4.86     4.72     4.57     4.42     4.31     
 4.16     4.08     4.01     3.94     3.86     3.78     3.71     3.63     3.56     3.50     
 3.49     3.48     3.49     3.53     3.57     3.61     3.65     3.71     3.80     3.91     
 4.03     4.17     4.31     4.48     4.65     4.85     5.03     5.23     5.45     5.68     
 5.92     6.17     6.44     6.71     7.01     7.31     7.63     7.95     8.28     8.61     
 8.96     9.32     9.70     10.11    10.54    10.96    11.43    11.89    12.39    12.90    
 13.44    14.02    14.63    15.23    15.87    16.55    17.29    18.07    18.90    19.81    
 20.82    21.92    23.18    24.70    26.44    28.58    31.16    34.09    37.39    41.15    
 45.42    50.04    55.07    60.61    66.73    73.58    81.19    89.84    99.63    111.02   
 124.92   138.83   154.31   171.80   190.29   209.67   229.92   249.78   270.46   290.31   
 309.54   327.67   344.29   358.66   369.27   376.95   381.10   381.86   379.51   374.27   
 367.00   357.90   347.74   336.36   324.05   310.42   295.25   279.03   261.41   243.13   
 224.91   
447105.38 446755.97 442436.16 434076.91 421397.66 376805.77 332288.35 293082.22 246519.39 206133.10 
 160631.11 126729.90 98169.13 69666.53 55527.77 47745.87 41655.36 36832.30 32639.08 29043.67 
 21447.11 16654.95 13444.53 9743.31  6036.39  4183.79  2306.97  1656.16  1017.90  379.65   
 240.69   204.85   161.86   135.81   109.96   84.11    65.42    50.47    44.19    37.15    
 33.93    30.11    27.57    24.86    22.82    20.46    18.46    17.17    15.51    13.60    
 11.42    10.68    9.91     9.16     8.35     7.94     7.86     7.83     7.71     7.43     
 7.06     6.74     6.52     6.32     6.14     5.96     5.80     5.63     5.50     5.33     
 5.12     4.93     4.76     4.56     4.37     4.18     4.00     3.84     3.69     3.56     
 3.46     3.39     3.38     3.39     3.46     3.53     3.62     3.72     3.84     3.96     
 4.11     4.26     4.41     4.59     4.78     4.98     5.20     5.44     5.67     5.93     
 6.20     6.48     6.76     7.06     7.36     7.68     8.00     8.35     8.70     9.07     
 9.44     9.84     10.25    10.67    11.12    11.58    12.04    12.52    13.01    13.52    
 14.05    14.63    15.24    15.88    16.54    17.27    18.07    18.96    19.95    21.08    
 22.40    23.94    25.75    27.79    30.14    32.79    35.85    39.25    43.01    47.11    
 51.53    56.61    62.26    68.46    75.31    82.95    91.62    101.40   112.22   124.38   
 137.76   152.06   167.33   183.95   201.16   218.79   237.99   257.21   275.55   293.57   
 310.67   326.20   339.57   350.79   359.20   364.52   367.28   367.23   364.61   359.96   
 353.60   346.03   337.15   327.05   315.23   302.07   287.46   272.01   256.20   240.60   
 224.91   
447105.38 447318.89 444054.27 438059.03 427592.16 411003.09 375337.59 334119.30 303191.11 264031.62 
 224872.12 185796.88 156901.93 123922.52 102196.75 82342.35 61021.69 48397.18 40958.97 35381.16 
 30550.98 27208.41 23865.83 20512.69 15919.24 12838.07 9811.11  7553.89  5722.68  4017.62  
 2942.06  1868.42  1049.23  649.12   441.30   346.65   252.00   157.94   128.90   105.78   
 86.24    73.23    63.46    53.80    47.01    40.62    36.32    32.32    28.79    26.33    
 24.30    22.53    21.14    19.30    16.69    12.41    11.08    10.77    10.46    10.08    
 9.65     9.26     8.90     8.59     8.29     7.97     7.69     7.45     7.21     6.93     
 6.66     6.39     6.13     5.84     5.53     5.20     4.85     4.49     4.15     3.86     
 3.60     3.37     3.26     3.27     3.33     3.43     3.53     3.64     3.76     3.91     
 4.05     4.22     4.39     4.58     4.79     5.00     5.24     5.49     5.75     6.02     
 6.29     6.58     6.90     7.24     7.57     7.92     8.27     8.63     9.01     9.38     
 9.75     10.14    10.56    10.98    11.42    11.91    12.41    12.91    13.43    13.97    
 14.55    15.20    15.90    16.64    17.47    18.40    19.46    20.66    21.99    23.50    
 25.15    27.01    29.10    31.38    33.90    36.75    39.98    43.53    47.47    51.89    
 56.97    62.63    68.93    75.99    83.85    92.73    102.41   113.01   125.45   137.89   
 151.34   165.74   180.33   196.24   212.37   228.72   245.46   261.23   277.13   291.92   
 305.48   317.74   328.33   337.06   343.49   347.97   350.21   350.68   349.20   346.05   
 341.31   335.07   327.24   317.99   307.28   295.25   282.04   268.69   254.55   241.02   
 224.91   
447105.37 446482.55 443429.59 437584.44 426296.61 409223.72 395206.95 378828.65 352934.20 316714.95 
 280774.42 250366.40 220061.58 192722.83 163131.57 136041.93 118011.18 96093.87 74125.91 59486.46 
 46336.82 38589.85 30966.10 25841.16 22914.65 20128.13 18035.96 15960.71 14091.78 12385.41 
 10750.23 9115.91  7438.68  5898.49  4668.30  3662.83  2820.59  2238.37  1758.89  1364.24  
 1076.73  790.56   504.38   358.28   252.71   194.04   156.38   126.78   106.17   85.65    
 73.36    63.82    57.04    50.77    44.94    40.78    37.21    34.02    31.47    29.22    
 26.58    24.17    20.98    15.54    13.70    12.74    12.17    11.54    10.89    10.33    
 9.83     9.35     8.94     8.51     8.02     7.56     7.11     6.60     6.00     5.37     
 4.78     4.26     3.81     3.64     3.63     3.72     3.85     3.95     4.09     4.22     
 4.39     4.55     4.73     4.94     5.16     5.39     5.62     5.88     6.15     6.45     
 6.74     7.04     7.37     7.71     8.05     8.41     8.78     9.17     9.58     9.97     
 10.38    10.82    11.27    11.74    12.23    12.73    13.25    13.81    14.41    15.06    
 15.76    16.53    17.37    18.29    19.28    20.35    21.61    22.96    24.46    26.03    
 27.81    29.77    32.02    34.50    37.29    40.43    44.04    48.25    53.02    58.39    
 64.34    71.11    78.75    87.17    96.37    106.49   117.43   128.89   140.97   154.12   
 167.76   181.63   195.57   209.34   223.70   238.46   253.22   266.10   278.65   290.24   
 300.46   309.49   317.65   324.29   329.57   333.21   335.18   335.55   334.42   331.65   
 327.47   321.78   314.90   307.07   297.94   288.23   277.94   266.86   255.29   243.75   
 224.91   
447105.38 445837.79 443185.68 438355.36 427970.37 411801.49 399407.61 383189.88 365724.96 346755.12 
 326542.60 306737.06 282653.58 256377.11 230100.63 203808.82 175842.04 146073.88 119981.02 98617.84 
 81844.03 68548.57 57708.46 49015.62 43072.76 38070.55 33686.63 29357.13 26546.31 23735.49 
 20926.44 18357.35 15792.22 13783.87 11945.09 10329.47 8966.61  7798.99  6853.29  6069.41  
 5411.64  4848.04  4392.44  3983.48  3600.14  3214.79  2880.10  2545.42  2210.89  1893.31  
 1578.08  1271.55  989.93   762.86   588.30   472.35   383.74   313.55   261.54   209.66   
 172.66   141.63   117.32   98.97    84.78    72.30    61.64    52.00    45.04    39.41    
 34.46    30.48    27.30    23.70    17.40    15.67    14.52    13.05    11.79    10.59    
 9.37     7.80     5.94     4.23     3.33     3.34     3.42     3.50     3.59     3.70     
 3.81     3.95     4.09     4.27     4.46     4.68     4.91     5.15     5.42     5.66     
 5.93     6.22     6.52     6.85     7.19     7.55     7.93     8.32     8.75     9.18     
 9.63     10.12    10.62    11.13    11.65    12.17    12.75    13.35    13.96    14.63    
 15.38    16.24    17.23    18.27    19.41    20.74    22.23    23.85    25.61    27.50    
 29.60    31.88    34.34    37.13    40.18    43.72    47.80    52.39    57.46    63.00    
 69.06    76.35    84.43    93.28    102.94   113.58   125.47   137.35   149.82   162.68   
 175.80   189.14   202.00   215.25   228.03   240.58   252.63   264.16   275.25   285.49   
 294.89   303.32   310.87   317.49   323.04   327.26   330.17   331.62   331.82   330.40   
 327.83   323.97   319.19   312.95   305.65   297.29   287.91   277.73   267.30   256.51   
 224.91   
447105.38 444289.72 440652.55 435916.13 426144.14 410943.31 398942.75 384223.05 367572.18 349595.49 
 330930.39 312753.58 289906.20 266522.96 240124.14 213705.14 185624.62 158710.74 134067.61 114056.38 
 97184.73 83082.52 72038.99 62324.20 54643.89 48387.55 43378.72 38715.99 34978.95 31728.66 
 28639.99 25870.07 23100.14 20335.14 18023.67 15999.79 14234.35 12706.16 11503.22 10480.76 
 9668.56  8983.84  8421.48  7889.82  7414.65  6962.49  6577.42  6220.04  5893.35  5554.51  
 5211.29  4860.49  4497.17  4160.42  3854.89  3595.40  3330.36  3092.33  2860.51  2659.91  
 2459.31  2258.96  2078.86  1910.29  1748.20  1600.89  1457.67  1314.21  1179.93  1058.83  
 939.35   835.65   738.33   647.18   561.80   482.35   410.69   345.20   289.26   241.32   
 193.48   153.65   120.18   91.40    57.85    23.64    5.43     3.68     3.13     2.86     
 2.58     2.49     2.42     2.35     2.27     2.22     1.95     1.79     1.78     1.76     
 1.74     1.74     1.76     1.83     1.92     1.99     2.03     2.06     2.13     2.20     
 2.21     2.29     2.41     2.50     2.66     2.84     3.03     3.21     3.30     3.40     
 3.50     3.60     3.76     3.93     4.15     4.39     4.68     4.99     5.33     5.72     
 6.18     6.69     7.26     7.84     8.49     9.23     10.06    11.05    12.16    13.37    
 14.73    16.32    18.09    20.05    22.19    24.57    27.08    29.74    32.56    35.51    
 38.58    41.62    44.81    48.14    51.59    55.20    58.99    63.02    67.27    71.61    
 76.14    80.73    85.54    90.89    96.30    102.13   108.45   115.40   123.17   130.95   
 139.42   148.61   158.48   168.95   180.18   192.04   204.09   216.24   228.18   239.84   
 224.91   
447105.38 444369.50 440691.84 435684.07 426074.60 411333.36 398300.44 383731.44 367477.44 348060.92 
 327411.08 306284.13 282626.03 258363.47 232384.68 207520.74 183121.08 160249.99 137627.01 116715.15 
 100098.59 83521.29 72344.89 63476.26 56480.16 50851.77 46229.34 42325.14 38679.36 35276.66 
 32081.97 28966.86 25910.71 23123.05 20563.03 18447.86 16499.58 14758.62 13396.25 12300.62 
 11597.29 10897.77 10198.26 9681.52  9251.47  8870.60  8518.89  8172.94  7856.59  7544.41  
 7255.13  6972.31  6704.50  6428.96  6126.19  5826.33  5517.43  5219.88  4936.22  4656.99  
 4399.88  4164.86  3946.28  3741.22  3541.42  3348.74  3160.46  2981.27  2804.13  2629.77  
 2471.58  2324.16  2177.22  2034.22  1897.15  1774.69  1659.06  1548.22  1438.99  1337.26  
 1243.08  1158.85  1074.70  990.55   915.12   843.68   778.29   718.25   664.15   614.39   
 573.44   531.25   491.85   454.80   419.98   387.35   356.37   328.09   302.70   279.26   
 257.05   236.43   216.88   198.40   180.99   163.76   148.14   132.79   118.86   104.94   
 92.84    82.11    73.02    63.54    54.75    46.55    38.95    32.65    27.90    18.23    
 6.94     4.32     4.05     4.05     4.22     4.40     4.59     4.85     5.13     5.44     
 6.15     6.96     7.67     8.49     9.76     11.19    11.97    11.67    11.91    12.83    
 13.78    14.96    16.42    18.35    20.71    22.53    24.45    26.70    29.14    31.69    
 34.43    37.21    39.61    41.69    44.84    48.01    51.20    54.50    57.80    61.29    
 64.88    68.64    72.54    76.79    81.27    86.21    91.71    97.80    104.75   112.60   
 119.96   129.72   140.93   152.87   164.76   178.08   192.01   206.45   220.52   236.51   
 224.91   
447105.38 444568.43 440492.54 434590.02 425571.28 413001.20 396348.72 379746.13 360943.43 338655.46 
 312188.80 284809.78 259465.03 234120.26 208819.03 187208.73 165872.41 144059.85 122729.58 103908.19 
 89192.19 77625.84 68624.57 61768.22 56035.64 51277.44 47029.49 43182.95 39736.44 36270.18 
 33085.63 30014.36 27063.43 24444.13 21828.87 19576.46 17511.68 15748.01 14213.48 13019.62 
 12101.39 11423.48 10886.13 10450.03 10071.94 9729.36  9387.29  9090.54  8826.32  8578.23  
 8327.69  8070.93  7819.91  7555.87  7296.94  7028.51  6757.24  6479.18  6194.12  5916.90  
 5635.57  5340.93  5053.60  4783.59  4543.80  4307.71  4072.89  3846.00  3621.94  3405.02  
 3191.02  2991.34  2802.10  2629.62  2457.21  2290.07  2130.32  1977.35  1841.99  1712.54  
 1591.80  1479.02  1378.88  1288.26  1206.68  1128.88  1058.58  992.90   933.03   879.96   
 839.32   792.80   748.22   706.90   668.26   633.17   601.12   570.97   543.63   518.41   
 495.16   474.13   454.22   435.60   418.01   401.92   386.68   371.97   358.68   346.77   
 334.75   322.86   311.23   299.85   288.56   277.70   266.79   255.83   243.62   231.41   
 219.21   207.67   196.05   184.34   172.08   159.83   147.18   135.42   123.43   109.52   
 94.99    78.27    54.62    35.30    23.46    20.07    20.42    13.21    7.85     8.20     
 9.06     10.10    11.25    12.55    13.97    15.70    17.61    19.70    22.12    25.26    
 28.55    31.51    35.23    45.62    55.57    41.63    44.78    47.98    51.31    54.71    
 58.18    61.73    65.39    69.35    73.43    77.95    82.77    88.03    94.31    100.29   
 107.94   116.83   127.72   139.20   152.18   165.97   180.84   196.60   212.49   228.47   
 224.91   
447105.38 444122.69 438372.29 430049.76 418803.44 404082.07 384753.73 360876.67 331354.85 298802.88 
 264577.74 233983.59 207106.58 183476.40 162226.08 142720.76 125825.79 113321.77 100861.13 88400.50 
 79192.88 71738.10 65250.50 59531.21 54221.94 49292.29 44565.57 39986.21 35524.57 31201.04 
 27094.09 23443.29 20317.46 17909.13 16200.44 15132.43 14316.59 13628.17 12997.35 12423.91 
 11913.64 11452.60 10992.03 10571.92 10201.01 9879.38  9566.90  9278.34  9014.21  8749.47  
 8473.56  8193.63  7927.56  7671.93  7432.28  7179.27  6930.51  6677.42  6434.63  6178.00  
 5916.90  5658.85  5400.52  5146.95  4900.17  4643.92  4388.79  4141.99  3891.70  3651.31  
 3419.74  3187.45  2974.81  2766.90  2574.90  2393.76  2227.41  2056.43  1899.71  1759.39  
 1633.90  1514.10  1402.70  1301.96  1210.95  1133.89  1056.96  988.40   923.73   877.94   
 840.15   796.21   753.73   715.70   683.11   652.82   626.56   603.20   582.44   563.28   
 545.93   530.09   515.33   501.53   488.88   475.91   463.47   451.61   440.56   429.57   
 418.91   408.35   398.04   388.42   378.42   369.18   359.83   351.43   342.90   334.23   
 326.42   318.19   309.95   302.53   294.08   285.46   276.15   266.71   257.25   247.63   
 237.89   226.78   214.50   202.59   190.86   178.84   166.80   154.65   142.10   129.21   
 114.47   99.72    76.83    29.98    17.46    15.66    15.61    15.20    16.84    19.25    
 21.85    24.61    27.62    30.82    34.10    37.48    41.23    45.30    49.56    53.77    
 66.72    73.93    63.87    68.27    73.08    78.12    83.36    88.78    94.59    100.82   
