IESNA:LM-63-2002
[TEST] 1
[TESTLAB] AOK
[TESTDATE] 2022-05-12
[ISSUEDATE] 2022-05-12 09:04:12
[NEARFIELD] 
[LAMPPOSITION] 0,0
[OTHER] EVERFINE GO-2000A_V1 SYSTEM
[MANUFAC] AOK
[LUMCAT] A
[LUMINAIRE] AOK-600WiSF-NVY-S5-00-5070-3585D-P
[LAMPCAT] B
[LAMP] 5050
[BALLAST] E
[BALLASTCAT] F
[OTHER] 
[OTHER] Gamma(deg)    Fz(lm)      Ft(lm)     %Lum    %Lamp
[OTHER]   0- 10      6197.03     6197.03     7.99     7.99
[OTHER]  10- 20     13248.34    19445.36    25.07    25.07
[OTHER]  20- 30     15354.23    34799.59    44.86    44.86
[OTHER]  30- 40     14647.33    49446.92    63.74    63.74
[OTHER]  40- 50     11970.12    61417.04    79.17    79.17
[OTHER]  50- 60      8495.36    69912.40    90.13    90.13
[OTHER]  60- 70      4606.58    74518.99    96.06    96.06
[OTHER]  70- 80      1799.14    76318.12    98.38    98.38
[OTHER]  80- 90       531.69    76849.81    99.07    99.07
[OTHER]  90-100       202.53    77052.34    99.33    99.33
[OTHER] 100-110       130.59    77182.93    99.50    99.50
[OTHER] 110-120       106.70    77289.63    99.64    99.64
[OTHER] 120-130        87.90    77377.53    99.75    99.75
[OTHER] 130-140        69.46    77446.99    99.84    99.84
[OTHER] 140-150        55.39    77502.38    99.91    99.91
[OTHER] 150-160        40.15    77542.53    99.96    99.96
[OTHER] 160-170        22.15    77564.68    99.99    99.99
[OTHER] 170-180         7.80    77572.48   100.00   100.00
[OTHER] 
TILT=NONE
1 77572 1 181 25 1 2 0.150 0.200 0.000
1.000 1 593.63
0.0    1.0    2.0    3.0    4.0    5.0    6.0    7.0    8.0    9.0    
 10.0   11.0   12.0   13.0   14.0   15.0   16.0   17.0   18.0   19.0   
 20.0   21.0   22.0   23.0   24.0   25.0   26.0   27.0   28.0   29.0   
 30.0   31.0   32.0   33.0   34.0   35.0   36.0   37.0   38.0   39.0   
 40.0   41.0   42.0   43.0   44.0   45.0   46.0   47.0   48.0   49.0   
 50.0   51.0   52.0   53.0   54.0   55.0   56.0   57.0   58.0   59.0   
 60.0   61.0   62.0   63.0   64.0   65.0   66.0   67.0   68.0   69.0   
 70.0   71.0   72.0   73.0   74.0   75.0   76.0   77.0   78.0   79.0   
 80.0   81.0   82.0   83.0   84.0   85.0   86.0   87.0   88.0   89.0   
 90.0   91.0   92.0   93.0   94.0   95.0   96.0   97.0   98.0   99.0   
 100.0  101.0  102.0  103.0  104.0  105.0  106.0  107.0  108.0  109.0  
 110.0  111.0  112.0  113.0  114.0  115.0  116.0  117.0  118.0  119.0  
 120.0  121.0  122.0  123.0  124.0  125.0  126.0  127.0  128.0  129.0  
 130.0  131.0  132.0  133.0  134.0  135.0  136.0  137.0  138.0  139.0  
 140.0  141.0  142.0  143.0  144.0  145.0  146.0  147.0  148.0  149.0  
 150.0  151.0  152.0  153.0  154.0  155.0  156.0  157.0  158.0  159.0  
 160.0  161.0  162.0  163.0  164.0  165.0  166.0  167.0  168.0  169.0  
 170.0  171.0  172.0  173.0  174.0  175.0  176.0  177.0  178.0  179.0  
 180.0  
0.0    15.0   30.0   45.0   60.0   75.0   90.0   105.0  120.0  135.0  
 150.0  165.0  180.0  195.0  210.0  225.0  240.0  255.0  270.0  285.0  
 300.0  315.0  330.0  345.0  360.0  
67719.35 64577.53 62089.23 60662.52 59211.16 51776.25 45817.18 38960.03 31133.97 25541.59 
 17845.37 12676.87 7492.79  2308.21  1703.53  1147.72  591.92   36.11    17.41    14.28    
 12.45    11.21    9.93     9.07     8.37     7.54     6.91     6.38     5.91     5.50     
 5.24     5.00     4.83     4.67     4.54     4.41     4.33     4.32     4.42     4.48     
 4.49     4.55     4.58     4.58     4.48     4.38     4.29     4.19     4.14     4.09     
 3.96     3.89     3.79     3.75     3.72     3.66     3.60     3.56     3.53     3.49     
 3.44     3.41     3.40     3.36     3.30     3.27     3.26     3.25     3.23     3.20     
 3.18     3.15     3.13     3.13     3.13     3.14     3.14     3.14     3.14     3.15     
 3.19     3.24     3.31     3.38     3.47     3.57     3.67     3.81     3.96     4.12     
 4.32     4.54     4.79     5.06     5.36     5.68     6.06     6.47     6.91     7.36     
 7.86     8.40     9.00     9.63     10.33    11.08    11.87    12.67    13.51    14.37    
 15.32    16.27    17.25    18.24    19.29    20.35    21.42    22.50    23.66    24.82    
 26.01    27.25    28.59    30.00    31.47    32.96    34.58    36.32    38.16    40.04    
 41.98    43.96    45.99    48.08    50.27    52.56    54.84    57.15    59.48    61.85    
 64.32    66.90    69.58    72.36    75.25    78.22    81.19    84.37    87.69    90.97    
 94.27    97.67    101.16   104.69   108.10   111.33   114.33   117.08   119.54   121.74   
 123.65   125.23   126.57   127.48   127.93   127.80   127.08   125.75   123.85   121.31   
 118.25   114.74   111.01   106.94   102.78   98.42    94.07    89.77    85.41    80.69    
 75.07    
67719.35 64737.04 62035.46 60344.74 59316.56 54967.45 47992.38 41798.28 35769.39 29125.25 
 22481.11 15850.37 10857.97 7359.61  3861.26  394.17   311.01   227.85   144.95   87.75    
 46.01    27.62    19.02    13.77    11.36    9.89     8.89     8.17     7.71     7.34     
 7.02     6.70     6.53     6.36     6.07     5.61     5.50     5.51     5.45     5.33     
 5.17     5.08     4.99     4.85     4.66     4.62     4.70     4.69     4.67     4.63     
 4.56     4.49     4.37     4.29     4.18     4.07     4.00     3.92     3.85     3.78     
 3.67     3.58     3.48     3.41     3.33     3.29     3.22     3.13     3.07     3.04     
 2.99     2.94     2.85     2.81     2.79     2.78     2.78     2.78     2.78     2.80     
 2.83     2.85     2.89     2.94     3.02     3.12     3.25     3.40     3.57     3.77     
 3.99     4.24     4.50     4.79     5.12     5.47     5.83     6.24     6.69     7.18     
 7.68     8.23     8.84     9.50     10.20    10.92    11.68    12.50    13.37    14.26    
 15.19    16.18    17.20    18.22    19.29    20.37    21.50    22.60    23.75    24.94    
 26.20    27.55    28.97    30.42    31.90    33.46    35.12    36.87    38.62    40.46    
 42.33    44.23    46.20    48.17    50.17    52.18    54.28    56.39    58.50    60.73    
 63.05    65.43    67.94    70.54    73.27    76.10    78.92    81.90    84.91    88.07    
 91.38    94.66    97.98    101.34   104.55   107.61   110.41   112.89   115.22   117.17   
 118.89   120.36   121.57   122.46   122.87   122.77   122.11   120.84   119.07   116.78   
 114.08   111.08   107.91   104.63   101.28   97.83    94.14    91.39    87.04    82.44    
 75.07    
67719.35 65072.55 62494.14 60696.13 59611.82 58627.64 52906.67 47223.44 41455.37 36011.02 
 28370.92 24267.70 17471.90 13164.07 8810.15  4455.43  1009.16  646.33   322.64   245.64   
 213.20   163.50   126.78   104.99   83.36    69.93    59.43    49.93    46.06    45.55    
 38.11    32.21    27.95    27.14    24.33    21.52    18.45    15.62    13.24    11.61    
 10.54    9.56     8.81     8.17     7.57     7.10     6.77     6.48     6.25     5.98     
 5.76     5.57     5.40     5.17     4.98     4.79     4.64     4.52     4.39     4.26     
 4.12     4.00     3.91     3.81     3.70     3.60     3.52     3.45     3.38     3.32     
 3.25     3.19     3.13     3.08     3.04     3.00     2.96     2.93     2.91     2.90     
 2.89     2.89     2.89     2.96     3.05     3.19     3.35     3.54     3.76     4.00     
 4.26     4.55     4.89     5.26     5.64     6.06     6.53     7.03     7.59     8.21     
 8.89     9.60     10.35    11.12    11.99    12.89    13.80    14.76    15.72    16.69    
 17.75    18.84    19.96    21.08    22.25    23.47    24.72    25.97    27.30    28.69    
 30.11    31.55    33.01    34.51    36.09    37.64    39.23    40.87    42.56    44.26    
 45.96    47.69    49.47    51.27    53.19    55.21    57.27    59.43    61.65    63.93    
 66.30    68.80    71.42    74.08    76.81    79.55    82.39    85.33    88.35    91.35    
 94.31    97.24    100.09   102.76   105.33   107.66   109.76   111.67   113.42   115.00   
 116.43   117.60   118.42   118.83   118.84   118.45   117.66   116.40   114.87   113.02   
 110.96   108.70   106.38   105.12   102.74   99.74    96.61    93.28    89.81    86.21    
 75.07    
67719.35 65510.56 63450.11 61533.53 60120.77 59210.55 58646.69 56292.70 50501.21 45596.50 
 40642.38 36281.48 30585.65 25939.48 21293.31 16657.66 13156.41 9244.75  6514.91  3732.44  
 968.02   556.01   424.68   311.95   249.15   186.65   158.70   127.67   103.73   87.27    
 71.83    62.20    52.89    44.89    38.74    33.86    30.23    27.25    24.62    22.38    
 20.38    18.59    16.62    14.49    12.67    11.84    11.46    11.05    10.63    10.12    
 9.56     8.99     8.27     7.59     7.09     6.77     6.60     6.48     6.34     6.16     
 5.97     5.77     5.56     5.35     5.15     4.95     4.77     4.60     4.44     4.28     
 4.13     3.98     3.84     3.71     3.59     3.47     3.37     3.28     3.19     3.12     
 3.08     3.08     3.09     3.12     3.22     3.37     3.58     3.83     4.12     4.46     
 4.83     5.24     5.69     6.20     6.73     7.29     7.89     8.54     9.24     9.94     
 10.67    11.44    12.26    13.15    14.05    14.99    15.96    16.96    18.01    19.11    
 20.20    21.35    22.55    23.79    25.06    26.36    27.72    29.06    30.45    31.89    
 33.38    34.92    36.52    38.08    39.69    41.34    43.09    44.88    46.69    48.57    
 50.50    52.48    54.51    56.58    58.67    60.83    63.06    65.33    67.57    69.93    
 72.41    74.86    77.32    79.82    82.34    84.88    87.34    89.79    92.14    94.38    
 96.61    98.69    100.62   102.49   104.22   105.87   107.40   108.72   109.91   110.86   
 111.64   112.17   112.47   112.54   112.35   111.88   111.22   110.33   109.31   108.17   
 107.50   106.60   105.56   104.06   102.37   98.81    97.64    95.73    93.24    90.70    
 75.07    
67719.35 66137.07 64707.94 63361.10 62003.58 60829.63 59543.26 58251.61 57293.32 56557.60 
 54382.81 49920.79 45739.72 42874.36 39090.69 35224.13 32221.25 27916.78 23699.06 21310.54 
 18645.40 14834.15 12225.17 9996.38  7771.70  5547.03  3078.13  1280.66  882.86   502.88   
 376.10   272.22   201.43   154.34   125.97   105.72   85.54    73.71    66.71    58.08    
 49.34    43.72    39.52    34.21    31.15    28.09    26.02    24.09    21.50    19.59    
 17.85    16.36    14.82    12.80    11.27    10.57    10.11    9.73     9.35     9.00     
 8.55     8.20     7.86     7.55     7.27     7.00     6.74     6.49     6.26     6.06     
 5.86     5.66     5.47     5.29     5.11     4.93     4.74     4.56     4.38     4.24     
 4.11     4.01     3.93     3.90     3.91     4.06     4.32     4.66     5.02     5.40     
 5.83     6.30     6.79     7.35     7.95     8.58     9.24     9.98     10.76    11.56    
 12.43    13.35    14.30    15.27    16.35    17.49    18.65    19.84    21.04    22.37    
 23.73    25.12    26.52    27.98    29.51    31.08    32.68    34.32    36.05    37.82    
 39.59    41.42    43.30    45.24    47.20    49.15    51.17    53.29    55.39    57.52    
 59.66    61.78    63.88    66.02    68.22    70.39    72.55    74.70    76.84    78.95    
 81.05    83.18    85.24    87.27    89.22    91.11    92.93    94.68    96.35    97.93    
 99.36    100.68   101.90   103.03   104.05   104.92   105.68   106.32   106.82   107.20   
 107.50   107.64   107.70   107.68   107.60   107.46   107.21   106.91   106.99   106.05   
 105.39   104.78   104.28   103.77   102.95   101.60   100.30   99.39    98.18    96.84    
 75.07    
67719.35 66889.16 66162.53 65496.99 64838.43 64108.63 63101.56 61802.48 60639.43 59415.25 
 58104.36 56931.47 55830.93 54714.48 53957.69 52902.70 51764.25 50667.82 49581.61 48365.87 
 46191.87 43494.81 40801.22 38071.80 36069.68 33901.78 31532.88 28871.85 26366.70 24213.87 
 22057.55 19427.81 16640.22 14602.26 12806.28 11167.99 9383.50  7900.71  6396.59  5419.53  
 4362.87  3500.95  2751.28  2002.77  1405.30  960.57   681.06   480.50   351.42   288.04   
 224.67   161.63   132.61   103.49   82.54    70.28    61.40    49.63    42.35    36.84    
 32.39    28.93    25.89    23.75    21.69    19.57    17.52    15.38    13.48    12.38    
 11.92    11.35    10.53    9.67     8.97     8.45     7.94     7.36     6.95     6.47     
 5.91     5.51     5.09     4.67     4.29     3.99     4.01     4.26     4.57     4.90     
 5.28     5.69     6.16     6.65     7.19     7.75     8.36     9.03     9.74     10.47    
 11.26    12.09    13.02    14.00    15.03    16.07    17.16    18.32    19.57    20.85    
 22.17    23.56    25.03    26.53    28.07    29.64    31.30    32.92    34.62    36.37    
 38.21    40.12    42.08    43.99    45.92    47.89    49.92    51.98    54.04    56.12    
 58.20    60.26    62.36    64.40    66.43    68.46    70.51    72.53    74.47    76.42    
 78.38    80.26    82.09    83.85    85.53    87.15    88.73    90.20    91.65    93.14    
 94.49    95.74    96.91    97.96    99.03    100.12   101.06   101.88   102.68   103.41   
 104.10   104.72   105.26   105.75   106.18   106.60   106.95   108.45   108.69   108.86   
 108.93   108.88   108.74   108.48   107.99   107.14   106.36   105.40   104.31   103.25   
 75.07    
67719.35 67739.98 67797.85 67967.30 68112.10 68197.12 67962.79 67414.22 66946.13 66421.35 
 65951.05 65340.51 64702.22 64083.22 63405.55 62834.97 62201.76 61670.45 60986.99 60265.57 
 59542.69 58866.08 58028.31 57078.07 56081.48 55221.64 54100.85 53200.22 52015.83 50806.98 
 49557.50 48295.21 46895.99 45409.94 44027.20 42587.14 41025.67 39333.48 37733.53 36164.92 
 34547.31 32843.54 31239.53 29670.97 28050.68 26455.28 24940.88 23427.60 22010.70 20646.60 
 19395.52 18086.45 16768.71 15500.26 14284.41 13041.02 11988.66 11022.25 10058.84 9075.36  
 8176.75  7333.93  6583.19  5883.93  5286.27  4695.83  4176.20  3681.73  3226.69  2818.74  
 2411.58  2072.48  1778.03  1506.47  1268.51  1040.93  844.87   675.05   538.54   426.91   
 331.83   261.49   191.39   141.59   106.45   77.51    44.88    23.16    9.73     5.75     
 5.14     4.88     4.29     3.84     3.65     3.36     2.48     2.47     2.51     2.59     
 2.68     2.79     2.89     3.02     3.15     3.30     3.46     3.64     3.83     4.04     
 4.26     4.50     4.76     5.04     5.33     5.63     5.96     6.30     6.66     7.04     
 7.44     7.84     8.26     8.70     9.19     9.69     10.19    10.71    11.23    11.78    
 12.35    12.93    13.53    14.14    14.77    15.42    16.10    16.82    17.54    18.28    
 19.05    19.85    20.66    21.52    22.41    23.38    24.34    25.34    26.37    27.48    
 28.63    29.84    31.07    32.38    33.78    35.26    36.89    38.68    40.57    42.62    
 44.74    46.97    49.26    51.66    54.06    56.55    59.09    62.78    64.15    67.01    
 69.39    72.61    75.77    78.12    80.37    82.48    84.42    86.04    87.41    88.59    
 75.07    
67719.35 68558.14 69460.91 70448.61 71432.95 72406.56 73081.91 73517.62 73910.90 74283.73 
 74636.32 75057.00 75498.35 75763.09 75821.41 75677.12 75459.51 75329.02 75127.19 74752.10 
 74054.28 73281.25 72367.03 71114.17 69802.22 68550.09 67318.54 65962.18 64545.04 63131.33 
 61645.43 60255.16 58709.23 57013.30 55267.88 53694.80 51966.42 50285.03 48632.64 46963.93 
 45431.45 43800.00 42159.56 40611.37 39124.26 37565.37 35965.70 34373.73 32870.24 31492.08 
 30050.43 28512.13 27097.26 25791.93 24455.51 23066.60 21761.56 20529.56 19410.67 18328.86 
 17118.70 16011.09 14997.51 14041.01 13016.84 12092.37 11248.80 10405.95 9517.30  8651.90  
 7824.17  7103.09  6383.17  5730.81  5124.27  4619.87  4124.97  3673.29  3234.21  2811.94  
 2475.33  2167.94  1890.53  1636.87  1442.45  1275.07  1123.76  972.60   859.26   764.09   
 682.15   610.05   544.65   488.30   441.37   401.20   365.21   333.47   306.64   282.78   
 261.23   243.86   227.93   214.17   200.86   188.87   178.97   170.30   162.64   155.38   
 149.05   142.99   137.33   131.41   125.12   118.82   113.17   107.93   102.93   98.52    
 94.51    90.32    86.20    82.06    78.00    73.32    68.38    62.42    54.39    45.26    
 36.36    29.47    24.08    20.36    16.08    12.21    10.55    10.76    11.31    11.91    
 12.53    13.13    13.75    14.36    14.99    15.63    16.25    16.88    17.52    18.18    
 18.84    19.52    20.21    20.98    21.81    22.68    23.66    24.78    26.00    27.42    
 28.95    30.77    32.77    34.98    37.36    39.85    42.47    45.25    48.13    51.41    
 54.25    57.51    60.59    63.69    68.11    71.25    74.13    76.84    79.33    81.77    
 75.07    
67719.35 69332.54 70971.47 72749.82 74433.01 76216.02 77954.48 79654.00 80819.49 81847.45 
 82490.59 82485.78 81673.20 80500.77 79477.19 78472.39 77358.55 76192.18 74997.62 73793.06 
 72467.66 71053.95 69652.61 68279.22 66889.06 65438.56 63980.02 62519.58 60902.04 59240.53 
 57591.35 55924.82 54181.72 52423.64 50765.49 49058.17 47268.46 45647.94 44071.35 42475.52 
 40947.68 39401.54 38012.86 36701.22 35450.82 34285.65 33197.88 32201.84 31147.16 29888.39 
 28686.20 27516.63 26387.35 25270.70 24154.06 23036.96 21877.03 20707.75 19612.36 18567.61 
 17536.37 16581.06 15743.54 14890.82 14057.23 13203.44 12349.63 11457.30 10581.48 9725.94  
 8933.12  8142.07  7329.25  6600.20  5867.47  5132.80  4373.13  3793.66  3294.41  2864.08  
 2433.72  2002.14  1708.41  1485.55  1281.89  1129.26  994.48   886.01   794.44   715.75   
 654.49   595.72   535.80   486.17   446.81   416.26   389.82   368.87   349.97   334.07   
 319.63   307.00   295.18   284.82   275.88   268.47   261.07   253.95   247.96   241.97   
 235.99   231.07   226.33   221.80   217.41   213.16   208.90   205.21   201.61   197.52   
 193.82   190.26   186.56   182.95   179.84   176.61   172.89   169.50   166.02   162.42   
 158.13   152.39   145.78   139.16   133.03   126.50   119.56   113.14   107.09   100.66   
 93.01    85.30    78.09    72.07    66.98    61.71    58.08    45.47    25.76    16.58    
 13.23    12.67    13.38    14.12    14.88    15.66    16.47    17.31    18.23    19.28    
 20.41    21.67    23.10    24.75    26.56    28.55    30.75    33.20    35.87    38.82    
 42.00    45.52    49.11    52.76    56.61    60.46    64.53    69.32    73.02    76.72    
 75.07    
67719.35 70014.93 72354.84 74683.07 77256.32 79820.42 81838.13 83469.45 83765.35 82897.23 
 82018.61 81067.74 79951.62 78986.74 77790.09 76559.46 75127.52 73770.37 72381.90 70359.36 
 68078.09 65774.44 63494.69 61279.38 59217.24 57296.93 55578.65 53922.68 52523.25 51451.17 
 50518.62 49607.43 48660.31 47668.71 46748.99 45817.84 44854.45 43722.06 42443.16 41151.67 
 39827.99 38556.13 37280.75 35921.08 34508.47 33079.34 31561.72 30175.92 28907.70 27680.58 
 26485.15 25318.78 24349.19 23393.54 22405.89 21353.74 20280.95 19216.02 18163.20 17130.57 
 16033.80 14995.64 13967.13 12910.63 11867.17 10823.84 9780.51  8792.86  7765.81  6851.61  
 6062.54  5440.64  4912.73  4382.03  3852.53  3414.52  2910.68  2551.04  2236.65  1969.86  
 1707.14  1499.01  1320.23  1186.64  1053.39  920.14   817.14   732.61   658.41   604.06   
 555.05   506.74   461.69   424.50   393.44   367.13   348.15   333.87   322.27   311.35   
 301.57   293.43   286.26   280.64   274.67   269.67   264.91   260.01   255.41   251.38   
 247.01   243.38   239.67   235.61   231.50   227.78   224.33   220.81   217.10   213.87   
 210.60   207.06   203.40   198.85   193.64   188.82   183.96   179.50   174.83   170.49   
 166.07   162.62   159.96   157.39   154.79   151.52   148.91   146.35   143.92   141.40   
 138.84   135.93   133.23   130.54   127.84   124.12   116.58   111.78   107.53   101.84   
 96.50    85.04    78.93    77.00    74.21    63.61    36.31    23.39    17.51    15.99    
 15.36    16.31    17.69    19.14    20.72    22.36    24.12    26.11    28.32    30.90    
 33.73    36.89    40.34    43.89    47.70    52.22    56.81    61.36    66.24    71.64    
 75.07    
67719.35 70532.98 73276.54 76203.19 79352.23 81990.36 83791.01 83655.59 82765.61 81852.51 
