IESNA:LM-63-2002
[TEST] 1
[TESTLAB] AOK
[TESTDATE] 2022-05-12
[ISSUEDATE] 2022-05-12 10:43:17
[NEARFIELD] 
[LAMPPOSITION] 0,0
[OTHER] EVERFINE GO-2000A_V1 SYSTEM
[MANUFAC] AOK
[LUMCAT] A
[LUMINAIRE] AOK-600WiSF-NVY-S5-00-5070-3585D-P
[LAMPCAT] B
[LAMP] 5050
[BALLAST] E
[BALLASTCAT] F
[OTHER] 
[OTHER] Gamma(deg)    Fz(lm)      Ft(lm)     %Lum    %Lamp
[OTHER]   0- 10      6164.52     6164.52     8.05     8.05
[OTHER]  10- 20     13157.07    19321.59    25.24    25.24
[OTHER]  20- 30     15173.25    34494.84    45.06    45.06
[OTHER]  30- 40     14434.37    48929.20    63.92    63.92
[OTHER]  40- 50     11786.23    60715.43    79.31    79.31
[OTHER]  50- 60      8341.03    69056.46    90.21    90.21
[OTHER]  60- 70      4510.96    73567.42    96.10    96.10
[OTHER]  70- 80      1755.47    75322.89    98.40    98.40
[OTHER]  80- 90       518.12    75841.01    99.07    99.07
[OTHER]  90-100       198.17    76039.18    99.33    99.33
[OTHER] 100-110       128.34    76167.52    99.50    99.50
[OTHER] 110-120       104.77    76272.29    99.64    99.64
[OTHER] 120-130        86.19    76358.47    99.75    99.75
[OTHER] 130-140        68.04    76426.52    99.84    99.84
[OTHER] 140-150        54.22    76480.74    99.91    99.91
[OTHER] 150-160        39.36    76520.10    99.96    99.96
[OTHER] 160-170        21.90    76542.00    99.99    99.99
[OTHER] 170-180         7.77    76549.77   100.00   100.00
[OTHER] 
TILT=NONE
1 76550 1 181 25 1 2 0.150 0.200 0.000
1.000 1 569.591
0.0    1.0    2.0    3.0    4.0    5.0    6.0    7.0    8.0    9.0    
 10.0   11.0   12.0   13.0   14.0   15.0   16.0   17.0   18.0   19.0   
 20.0   21.0   22.0   23.0   24.0   25.0   26.0   27.0   28.0   29.0   
 30.0   31.0   32.0   33.0   34.0   35.0   36.0   37.0   38.0   39.0   
 40.0   41.0   42.0   43.0   44.0   45.0   46.0   47.0   48.0   49.0   
 50.0   51.0   52.0   53.0   54.0   55.0   56.0   57.0   58.0   59.0   
 60.0   61.0   62.0   63.0   64.0   65.0   66.0   67.0   68.0   69.0   
 70.0   71.0   72.0   73.0   74.0   75.0   76.0   77.0   78.0   79.0   
 80.0   81.0   82.0   83.0   84.0   85.0   86.0   87.0   88.0   89.0   
 90.0   91.0   92.0   93.0   94.0   95.0   96.0   97.0   98.0   99.0   
 100.0  101.0  102.0  103.0  104.0  105.0  106.0  107.0  108.0  109.0  
 110.0  111.0  112.0  113.0  114.0  115.0  116.0  117.0  118.0  119.0  
 120.0  121.0  122.0  123.0  124.0  125.0  126.0  127.0  128.0  129.0  
 130.0  131.0  132.0  133.0  134.0  135.0  136.0  137.0  138.0  139.0  
 140.0  141.0  142.0  143.0  144.0  145.0  146.0  147.0  148.0  149.0  
 150.0  151.0  152.0  153.0  154.0  155.0  156.0  157.0  158.0  159.0  
 160.0  161.0  162.0  163.0  164.0  165.0  166.0  167.0  168.0  169.0  
 170.0  171.0  172.0  173.0  174.0  175.0  176.0  177.0  178.0  179.0  
 180.0  
0.0    15.0   30.0   45.0   60.0   75.0   90.0   105.0  120.0  135.0  
 150.0  165.0  180.0  195.0  210.0  225.0  240.0  255.0  270.0  285.0  
 300.0  315.0  330.0  345.0  360.0  
67383.45 64283.19 61609.04 60063.63 59098.32 52715.78 46395.72 39411.00 32322.84 25868.24 
 19123.61 13514.61 8390.61  3271.88  2430.42  1634.60  838.78   42.97    18.07    14.45    
 12.57    11.34    9.99     9.05     8.30     7.50     6.86     6.33     5.86     5.46     
 5.16     4.94     4.75     4.61     4.47     4.35     4.25     4.23     4.33     4.41     
 4.42     4.46     4.49     4.50     4.41     4.31     4.22     4.13     4.06     4.02     
 3.90     3.83     3.73     3.69     3.66     3.61     3.55     3.51     3.48     3.45     
 3.39     3.36     3.33     3.31     3.25     3.22     3.21     3.19     3.17     3.16     
 3.14     3.10     3.08     3.07     3.07     3.07     3.08     3.09     3.10     3.11     
 3.12     3.18     3.24     3.31     3.40     3.48     3.60     3.73     3.86     4.02     
 4.22     4.43     4.66     4.92     5.22     5.53     5.89     6.28     6.70     7.16     
 7.65     8.14     8.73     9.36     10.02    10.73    11.49    12.29    13.12    13.98    
 14.88    15.81    16.79    17.76    18.76    19.80    20.86    21.93    23.05    24.18    
 25.34    26.56    27.88    29.24    30.66    32.14    33.71    35.43    37.20    39.03    
 40.90    42.83    44.84    46.94    49.08    51.26    53.51    55.80    58.14    60.51    
 62.90    65.37    67.97    70.67    73.48    76.46    79.47    82.59    85.76    89.01    
 92.32    95.77    99.22    102.60   105.92   109.21   112.24   114.97   117.48   119.74   
 121.69   123.31   124.69   125.70   126.23   126.23   125.63   124.46   122.71   120.33   
 117.43   114.03   110.40   106.40   102.30   98.00    93.71    89.41    85.12    80.51    
 75.12    
67383.45 64405.81 61648.70 59818.74 58733.04 55617.42 48228.73 42300.24 36225.20 28329.44 
 22376.79 16434.55 11760.64 7977.15  4193.66  443.92   347.11   250.29   153.84   94.24    
 48.84    28.87    19.51    13.93    11.33    9.90     8.83     8.07     7.61     7.22     
 6.90     6.59     6.42     6.25     6.02     5.54     5.41     5.41     5.35     5.23     
 5.08     5.00     4.89     4.76     4.59     4.55     4.63     4.63     4.59     4.56     
 4.50     4.42     4.30     4.23     4.12     4.03     3.95     3.87     3.79     3.72     
 3.64     3.54     3.45     3.37     3.29     3.23     3.18     3.08     3.03     2.99     
 2.95     2.90     2.82     2.78     2.75     2.74     2.74     2.74     2.74     2.75     
 2.78     2.81     2.85     2.90     2.97     3.06     3.19     3.33     3.49     3.69     
 3.90     4.14     4.40     4.68     5.00     5.35     5.69     6.09     6.51     6.99     
 7.49     8.02     8.60     9.25     9.93     10.64    11.38    12.18    13.02    13.89    
 14.79    15.76    16.77    17.77    18.81    19.88    20.98    22.06    23.17    24.34    
 25.57    26.87    28.25    29.66    31.13    32.65    34.26    35.95    37.72    39.50    
 41.33    43.19    45.15    47.09    49.04    51.03    53.11    55.19    57.28    59.46    
 61.74    64.07    66.51    69.08    71.75    74.51    77.32    80.20    83.15    86.26    
 89.51    92.80    96.04    99.39    102.60   105.64   108.48   111.00   113.33   115.33   
 117.07   118.55   119.80   120.74   121.23   121.25   120.70   119.57   117.92   115.74   
 113.14   110.21   107.09   103.85   100.53   97.13    93.50    90.81    86.51    82.02    
 75.12    
67383.45 64726.32 62136.58 60208.56 59058.24 58328.77 53171.31 47356.46 41780.15 36312.31 
 28958.60 24619.43 18071.16 13511.47 9384.03  5260.96  1137.89  709.60   328.35   247.37   
 214.39   166.56   129.97   106.65   83.48    70.85    59.49    50.10    45.33    45.49    
 38.40    32.17    27.75    26.89    24.31    21.41    18.42    15.48    13.09    11.42    
 10.33    9.41     8.67     8.05     7.46     7.01     6.69     6.41     6.16     5.91     
 5.69     5.49     5.32     5.11     4.93     4.74     4.59     4.46     4.34     4.21     
 4.07     3.95     3.85     3.75     3.65     3.56     3.48     3.41     3.34     3.27     
 3.21     3.15     3.09     3.04     3.00     2.97     2.93     2.89     2.87     2.88     
 2.89     2.90     2.90     2.91     3.01     3.13     3.29     3.47     3.68     3.92     
 4.17     4.46     4.78     5.14     5.51     5.91     6.39     6.87     7.41     8.01     
 8.66     9.39     10.10    10.87    11.68    12.57    13.47    14.41    15.35    16.32    
 17.36    18.42    19.49    20.63    21.78    22.97    24.17    25.42    26.73    28.10    
 29.47    30.88    32.32    33.83    35.38    36.91    38.48    40.11    41.75    43.44    
 45.13    46.83    48.56    50.34    52.23    54.19    56.22    58.32    60.49    62.72    
 65.09    67.61    70.18    72.82    75.50    78.20    80.97    83.77    86.75    89.77    
 92.75    95.65    98.45    101.17   103.73   106.02   108.19   110.12   111.88   113.48   
 114.92   116.12   117.01   117.48   117.55   117.25   116.52   115.35   113.89   112.10   
 110.08   107.88   105.56   104.28   101.91   98.98    95.93    92.61    89.17    85.59    
 75.12    
67383.45 65147.82 63091.11 61169.58 59673.98 58711.20 58132.42 56125.78 50686.70 45571.54 
 40746.52 36403.67 30992.46 26318.16 21643.85 16978.84 13317.77 9499.39  6689.82  3844.78  
 1018.10  581.77   429.26   316.64   252.13   187.95   159.03   127.87   103.81   87.23    
 71.58    62.24    52.94    44.90    38.71    33.97    30.32    27.32    24.71    22.47    
 20.46    18.66    16.70    14.54    12.70    11.83    11.45    11.04    10.63    10.12    
 9.54     8.99     8.27     7.56     7.05     6.70     6.53     6.42     6.28     6.11     
 5.91     5.70     5.50     5.29     5.09     4.89     4.71     4.55     4.39     4.23     
 4.08     3.94     3.79     3.67     3.54     3.43     3.33     3.23     3.15     3.08     
 3.03     3.03     3.05     3.08     3.16     3.31     3.51     3.76     4.05     4.37     
 4.73     5.14     5.59     6.07     6.59     7.14     7.73     8.38     9.06     9.74     
 10.46    11.23    12.03    12.89    13.79    14.71    15.67    16.67    17.69    18.77    
 19.84    20.97    22.14    23.36    24.60    25.89    27.22    28.55    29.90    31.33    
 32.80    34.32    35.88    37.41    39.00    40.64    42.32    44.09    45.88    47.71    
 49.60    51.55    53.55    55.57    57.63    59.74    61.93    64.19    66.41    68.73    
 71.13    73.54    76.01    78.49    80.96    83.50    85.95    88.39    90.70    92.96    
 95.17    97.27    99.21    101.07   102.81   104.46   106.00   107.36   108.56   109.56   
 110.35   110.93   111.25   111.35   111.19   110.77   110.16   109.31   108.33   107.20   
 106.44   105.62   104.61   103.13   101.40   97.88    96.97    94.91    92.46    89.93    
 75.12    
67383.45 65794.22 64350.03 63011.04 61661.63 60465.09 59144.31 57833.41 56875.15 56124.29 
 54118.55 49912.67 45624.31 42693.27 38986.63 35106.53 32104.28 27881.34 23658.07 21193.46 
 18589.41 14814.37 12160.46 9946.10  7736.53  5526.96  3074.81  1272.53  876.52   498.41   
 372.36   268.89   198.58   152.47   124.21   104.20   84.27    72.71    65.95    57.18    
 48.73    43.08    38.93    33.73    30.77    27.78    25.73    23.85    21.26    19.42    
 17.66    16.15    14.54    12.56    11.11    10.43    9.95     9.58     9.23     8.87     
 8.44     8.09     7.75     7.46     7.19     6.92     6.66     6.42     6.19     5.99     
 5.78     5.59     5.41     5.23     5.05     4.87     4.69     4.51     4.34     4.20     
 4.07     3.96     3.89     3.86     3.86     4.01     4.28     4.60     4.95     5.34     
 5.76     6.23     6.71     7.24     7.83     8.48     9.15     9.86     10.62    11.45    
 12.29    13.17    14.11    15.10    16.15    17.24    18.37    19.57    20.81    22.09    
 23.41    24.81    26.20    27.65    29.12    30.69    32.27    33.91    35.61    37.34    
 39.09    40.92    42.80    44.71    46.63    48.55    50.59    52.66    54.72    56.79    
 58.89    61.03    63.19    65.32    67.47    69.58    71.73    73.90    76.06    78.20    
 80.25    82.29    84.28    86.31    88.31    90.22    92.07    93.80    95.40    96.97    
 98.48    99.84    101.07   102.18   103.17   104.02   104.79   105.47   105.98   106.37   
 106.66   106.81   106.90   106.89   106.81   106.67   106.43   106.13   106.33   105.23   
 104.59   103.97   103.43   102.88   102.13   100.81   99.49    98.53    97.40    96.08    
 75.12    
67383.45 66583.76 65845.60 65164.90 64510.09 63769.14 62784.86 61470.61 60303.76 59068.28 
 57765.10 56588.45 55483.99 54344.74 53588.09 52540.78 51398.77 50321.45 49231.74 48039.23 
 45903.88 43244.99 40524.72 37772.82 35793.77 33630.05 31284.25 28627.28 26126.08 23967.11 
 21804.77 19185.65 16444.53 14431.87 12682.14 11007.68 9228.71  7742.66  6291.68  5324.71  
 4264.62  3398.94  2653.44  1909.30  1339.90  914.85   644.14   456.79   333.96   274.53   
 215.11   155.99   128.57   99.16    80.01    68.77    59.75    47.99    41.24    36.15    
 31.54    28.30    25.39    23.34    21.21    19.14    17.07    15.02    13.14    12.21    
 11.74    11.16    10.33    9.52     8.84     8.35     7.82     7.26     6.84     6.38     
 5.84     5.44     5.02     4.62     4.25     3.96     3.98     4.22     4.53     4.87     
 5.25     5.65     6.12     6.61     7.14     7.68     8.28     8.94     9.64     10.41    
 11.23    12.05    12.95    13.91    14.93    15.99    17.09    18.23    19.45    20.72    
 22.04    23.45    24.87    26.35    27.90    29.49    31.09    32.70    34.39    36.13    
 37.97    39.87    41.80    43.70    45.62    47.58    49.59    51.66    53.70    55.75    
 57.82    59.87    61.96    63.97    65.99    67.99    70.02    72.03    73.96    75.89    
 77.84    79.71    81.53    83.28    84.93    86.55    88.12    89.57    91.04    92.49    
 93.82    95.07    96.21    97.25    98.31    99.39    100.31   101.14   101.93   102.64   
 103.31   103.93   104.47   104.96   105.38   105.79   106.13   107.62   107.86   108.03   
 108.12   108.07   107.93   107.66   107.18   106.33   105.57   104.64   103.54   102.49   
 75.12    
67383.45 67392.03 67441.82 67579.85 67709.17 67778.64 67546.98 66987.12 66488.35 65949.03 
 65504.07 64862.39 64240.34 63577.44 62855.13 62205.15 61560.52 61022.58 60351.60 59630.20 
 58887.02 58171.09 57369.42 56446.47 55460.02 54539.54 53425.15 52543.87 51357.37 50154.05 
 48890.26 47653.19 46222.91 44773.29 43391.30 41948.32 40438.86 38741.95 37153.39 35561.17 
 33995.17 32282.66 30698.39 29129.72 27517.72 25987.11 24456.49 22927.15 21507.93 20163.76 
 18964.27 17652.25 16352.33 15076.81 13861.25 12670.84 11657.84 10697.22 9721.39  8734.39  
 7836.22  7015.40  6296.07  5625.27  5028.05  4469.23  3956.63  3460.45  3048.48  2636.51  
 2225.65  1909.37  1620.29  1363.03  1125.04  914.30   726.68   569.04   443.92   340.57   
 265.61   190.91   138.48   102.42   74.37    47.92    19.09    8.03     5.85     5.46     
 5.06     4.81     4.20     3.73     3.48     3.17     2.34     2.34     2.41     2.49     
 2.58     2.69     2.81     2.94     3.08     3.23     3.40     3.57     3.77     3.97     
 4.20     4.43     4.69     4.97     5.27     5.57     5.89     6.23     6.59     6.97     
 7.37     7.77     8.19     8.63     9.10     9.60     10.11    10.63    11.16    11.72    
 12.29    12.88    13.48    14.09    14.73    15.39    16.08    16.81    17.56    18.31    
 19.10    19.90    20.73    21.63    22.56    23.55    24.52    25.54    26.60    27.73    
 28.90    30.12    31.36    32.71    34.13    35.61    37.25    39.07    40.98    43.04    
 45.17    47.39    49.66    52.04    54.45    56.93    59.42    63.36    65.13    68.48    
 70.97    73.46    75.83    78.11    80.29    82.36    84.22    85.78    87.11    88.25    
 75.12    
67383.45 68200.10 69089.17 70063.49 71006.19 71901.86 72590.44 72975.20 73345.00 73730.78 
 74080.45 74466.06 74868.10 75012.38 74965.12 74759.14 74532.42 74381.35 74066.09 73604.35 
 72754.80 71897.68 70863.31 69545.41 68277.55 67098.75 65928.72 64576.96 63188.00 61814.77 
 60385.35 59003.70 57501.71 55817.42 54135.57 52546.42 50857.28 49223.77 47619.27 45990.51 
 44486.21 42894.61 41302.17 39766.08 38294.95 36767.98 35204.27 33636.23 32164.90 30823.34 
 29401.96 27879.56 26505.05 25216.49 23908.60 22548.17 21263.80 20064.70 18975.10 17898.48 
 16692.94 15626.44 14610.35 13699.37 12688.79 11836.45 10985.57 10134.69 9273.65  8421.93  
 7616.44  6905.73  6221.32  5575.20  4975.14  4479.96  4006.17  3559.11  3131.47  2719.51  
 2397.55  2104.10  1838.27  1590.89  1400.88  1238.35  1091.10  943.99   835.85   743.53   
 664.98   595.39   530.44   475.43   430.26   391.13   355.27   324.45   298.25   275.03   
 254.00   237.07   221.59   207.87   194.57   182.98   173.46   165.16   157.48   150.42   
 143.90   137.60   131.88   125.15   118.41   112.28   107.00   102.10   97.43    93.37    
 89.23    85.18    81.20    76.85    72.26    67.15    61.62    53.77    44.85    37.44    
 30.19    24.39    20.30    15.55    11.44    9.93     10.21    10.76    11.35    11.94    
 12.54    13.15    13.75    14.35    14.97    15.60    16.22    16.83    17.47    18.11    
 18.77    19.44    20.15    20.95    21.80    22.71    23.74    24.87    26.13    27.61    
 29.21    31.10    33.14    35.39    37.77    40.28    42.91    45.72    48.63    51.70    
 54.74    59.29    62.47    65.50    68.51    71.56    74.38    77.03    79.47    81.87    
 75.12    
67383.45 68966.20 70602.03 72305.80 73974.95 75771.14 77441.97 79041.02 80054.84 81040.63 
 81390.64 81001.83 80023.73 78874.59 77890.03 76880.43 75793.97 74666.53 73474.77 72277.26 
 70987.00 69608.29 68237.88 66891.52 65535.37 64027.36 62599.50 61149.29 59514.14 57871.43 
 56264.63 54600.36 52864.32 51193.03 49553.46 47872.90 46126.37 44585.15 43067.43 41498.20 
 39989.55 38506.55 37177.31 35920.91 34701.55 33559.72 32515.17 31534.11 30478.40 29230.67 
 28059.70 26921.24 25813.08 24704.93 23596.87 22498.30 21348.01 20206.22 19131.28 18091.15 
 17066.23 16154.21 15345.69 14507.59 13680.93 12838.64 12003.61 11124.08 10277.68 9440.96  
 8665.72  7884.07  7112.08  6397.91  5681.14  4952.06  4221.08  3655.50  3180.30  2761.53  
 2342.78  1926.73  1651.52  1433.63  1237.75  1090.22  962.16   858.00   769.98   694.95   
 636.00   577.37   519.34   472.57   434.41   405.29   380.05   359.61   341.44   326.01   
 312.09   299.50   288.32   277.91   269.48   262.03   254.76   248.20   241.64   235.10   
 230.33   225.41   220.76   216.29   212.02   207.75   203.55   199.98   196.24   192.29   
 188.67   185.26   181.69   178.04   174.80   171.53   168.18   164.69   161.18   157.43   
 152.68   146.39   139.68   133.10   127.04   120.53   114.15   107.94   101.93   95.39    
 87.67    79.41    72.48    67.28    62.65    58.08    50.57    31.50    17.94    13.81    
 12.23    12.71    13.43    14.16    14.92    15.70    16.50    17.35    18.26    19.30    
 20.44    21.74    23.22    24.91    26.72    28.76    30.98    33.47    36.19    39.19    
 42.40    46.05    49.45    53.21    58.37    62.24    65.96    69.57    73.21    76.84    
 75.12    
67383.45 69694.87 71970.92 74343.11 76880.82 79232.48 81172.13 82393.80 82260.65 81328.37 
 80505.31 79538.75 78426.38 77493.55 76357.29 75078.76 73666.34 72317.26 70808.38 68724.32 
 66386.05 64177.95 61967.03 59780.16 57826.44 55942.94 54268.94 52721.34 51471.17 50472.61 
 49552.67 48661.55 47718.51 46750.92 45847.36 44916.23 43960.77 42780.10 41524.74 40237.35 
 38965.69 37714.24 36422.86 35078.93 33666.30 32261.09 30783.67 29434.19 28202.26 26991.34 
 25827.97 24717.92 23764.81 22809.19 21833.48 20813.42 19744.80 18699.85 17671.18 16642.64 
 15585.96 14564.02 13555.59 12507.19 11497.50 10488.18 9478.86  8493.84  7499.67  6608.02  
 5857.32  5258.05  4747.72  4222.83  3716.08  3285.97  2799.63  2451.91  2154.27  1892.48  
 1637.91  1444.89  1269.06  1140.79  1012.88  884.97   787.76   705.68   634.86   584.30   
 536.68   488.81   446.39   411.37   380.58   356.86   339.60   325.73   314.48   304.62   
 294.89   287.01   280.06   274.61   268.87   264.05   259.42   254.34   250.04   246.20   
 242.00   238.33   234.61   230.42   226.57   222.86   219.45   216.06   212.52   209.34   
 206.03   202.58   199.13   194.68   189.42   184.87   180.09   175.54   171.00   166.80   
 162.38   158.79   156.05   153.35   150.92   147.78   144.95   142.26   139.78   137.22   
 134.75   131.70   128.70   125.69   123.69   118.38   112.25   107.88   102.76   97.45    
 90.67    79.71    75.40    73.69    69.85    50.76    27.73    20.69    16.10    15.06    
 15.23    16.44    17.81    19.30    20.87    22.51    24.27    26.26    28.55    31.16    
 34.06    37.23    40.70    44.27    48.12    52.53    57.13    61.79    66.63    71.96    
 75.12    
67383.45 70177.51 72843.37 75854.63 78937.82 81334.20 82552.73 82082.76 81297.28 80353.12 
