IESNA:LM-63-2002
[TEST] 1
[TESTLAB] AOK
[TESTDATE] 2022-05-30
[ISSUEDATE] 2022-05-31 09:07:55
[NEARFIELD] 
[LAMPPOSITION] 0,0
[OTHER] EVERFINE GO-2000A_V1 SYSTEM
[MANUFAC] AOK
[LUMCAT] A
[LUMINAIRE] AOK-800WiSF-NV-S35-00-5070-15D-P
[LAMPCAT] B
[LAMP] 5050
[BALLAST] E
[BALLASTCAT] F
[OTHER] 
[OTHER] Gamma(deg)    Fz(lm)      Ft(lm)     %Lum    %Lamp
[OTHER]   0- 10     46440.23    46440.23    46.32    46.32
[OTHER]  10- 20     26498.15    72938.38    72.75    72.75
[OTHER]  20- 30      9645.03    82583.41    82.37    82.37
[OTHER]  30- 40      5067.92    87651.33    87.42    87.42
[OTHER]  40- 50      4149.55    91800.89    91.56    91.56
[OTHER]  50- 60      3400.44    95201.33    94.95    94.95
[OTHER]  60- 70      2438.83    97640.15    97.38    97.38
[OTHER]  70- 80      1304.52    98944.67    98.69    98.69
[OTHER]  80- 90       529.04    99473.71    99.21    99.21
[OTHER]  90-100       234.90    99708.61    99.45    99.45
[OTHER] 100-110       140.21    99848.82    99.59    99.59
[OTHER] 110-120       105.05    99953.86    99.69    99.69
[OTHER] 120-130        78.54   100032.40    99.77    99.77
[OTHER] 130-140        53.22   100085.62    99.82    99.82
[OTHER] 140-150        38.06   100123.67    99.86    99.86
[OTHER] 150-160        53.50   100177.17    99.91    99.91
[OTHER] 160-170        63.99   100241.16    99.98    99.98
[OTHER] 170-180        21.70   100262.86   100.00   100.00
[OTHER] 
TILT=NONE
1 1.0026e+005 1 181 25 1 2 0.150 0.200 0.000
1.000 1 751.266
0.0    1.0    2.0    3.0    4.0    5.0    6.0    7.0    8.0    9.0    
 10.0   11.0   12.0   13.0   14.0   15.0   16.0   17.0   18.0   19.0   
 20.0   21.0   22.0   23.0   24.0   25.0   26.0   27.0   28.0   29.0   
 30.0   31.0   32.0   33.0   34.0   35.0   36.0   37.0   38.0   39.0   
 40.0   41.0   42.0   43.0   44.0   45.0   46.0   47.0   48.0   49.0   
 50.0   51.0   52.0   53.0   54.0   55.0   56.0   57.0   58.0   59.0   
 60.0   61.0   62.0   63.0   64.0   65.0   66.0   67.0   68.0   69.0   
 70.0   71.0   72.0   73.0   74.0   75.0   76.0   77.0   78.0   79.0   
 80.0   81.0   82.0   83.0   84.0   85.0   86.0   87.0   88.0   89.0   
 90.0   91.0   92.0   93.0   94.0   95.0   96.0   97.0   98.0   99.0   
 100.0  101.0  102.0  103.0  104.0  105.0  106.0  107.0  108.0  109.0  
 110.0  111.0  112.0  113.0  114.0  115.0  116.0  117.0  118.0  119.0  
 120.0  121.0  122.0  123.0  124.0  125.0  126.0  127.0  128.0  129.0  
 130.0  131.0  132.0  133.0  134.0  135.0  136.0  137.0  138.0  139.0  
 140.0  141.0  142.0  143.0  144.0  145.0  146.0  147.0  148.0  149.0  
 150.0  151.0  152.0  153.0  154.0  155.0  156.0  157.0  158.0  159.0  
 160.0  161.0  162.0  163.0  164.0  165.0  166.0  167.0  168.0  169.0  
 170.0  171.0  172.0  173.0  174.0  175.0  176.0  177.0  178.0  179.0  
 180.0  
0.0    15.0   30.0   45.0   60.0   75.0   90.0   105.0  120.0  135.0  
 150.0  165.0  180.0  195.0  210.0  225.0  240.0  255.0  270.0  285.0  
 300.0  315.0  330.0  345.0  360.0  
727664.06 731058.74 730976.37 729001.00 719304.93 654719.37 599371.81 535201.71 455979.69 371607.54 
 281338.85 199760.13 121714.51 95638.15 70128.94 55790.33 45161.10 36862.52 24529.15 17817.16 
 13325.77 9376.42  6273.36  3179.94  1034.14  75.77    48.54    30.94    22.94    20.00    
 18.11    16.60    15.20    13.84    12.33    10.79    9.57     8.50     7.87     7.55     
 7.32     7.23     6.96     6.55     6.32     6.21     6.14     5.97     5.92     5.64     
 5.13     4.75     4.45     4.21     4.11     3.99     3.94     3.91     3.88     3.83     
 3.79     3.76     3.74     3.71     3.71     3.71     3.71     3.70     3.70     3.69     
 3.69     3.68     3.68     3.67     3.67     3.66     3.66     3.65     3.64     3.62     
 3.62     3.62     3.63     3.68     3.73     3.80     3.90     4.01     4.12     4.24     
 4.38     4.52     4.69     4.88     5.08     5.28     5.48     5.70     5.92     6.16     
 6.37     6.61     6.86     7.13     7.42     7.73     8.05     8.38     8.73     9.10     
 9.47     9.86     10.27    10.70    11.14    11.61    12.08    12.58    13.08    13.62    
 14.18    14.78    15.40    16.04    16.69    17.35    18.04    18.80    19.60    20.45    
 21.38    22.37    23.48    24.77    26.19    27.77    29.56    31.63    33.96    36.65    
 39.59    42.89    46.65    50.85    55.53    60.78    66.68    73.44    81.37    90.71    
 101.75   114.74   129.83   146.93   166.16   186.87   208.78   232.60   256.43   279.33   
 301.28   322.35   342.06   359.71   374.24   384.35   390.02   391.12   387.94   381.11   
 371.35   359.88   347.36   333.57   319.60   304.47   288.00   269.91   250.35   229.90   
 208.72   
727664.06 732071.78 732455.17 730901.49 725383.83 685727.34 621075.94 558062.64 480571.45 399172.88 
 317495.08 235817.29 154326.79 95211.89 73576.69 58457.73 47310.21 38820.49 31533.98 24247.46 
 16989.15 13394.78 9109.84  5774.70  4642.14  3509.57  2377.01  1244.44  122.61   109.80   
 75.84    57.58    64.43    44.95    29.19    22.45    19.30    17.23    16.17    15.54    
 14.96    13.88    12.86    11.60    10.58    9.66     8.94     8.34     7.90     7.57     
 7.20     6.74     6.18     5.43     5.00     4.71     4.60     4.75     4.82     4.82     
 4.73     4.62     4.53     4.46     4.35     4.28     4.24     4.21     4.15     4.05     
 3.95     3.86     3.76     3.69     3.60     3.51     3.44     3.37     3.31     3.24     
 3.23     3.23     3.24     3.27     3.34     3.43     3.52     3.61     3.72     3.83     
 3.97     4.12     4.27     4.45     4.65     4.86     5.08     5.30     5.53     5.77     
 6.02     6.29     6.57     6.85     7.16     7.45     7.76     8.10     8.44     8.79     
 9.15     9.51     9.90     10.33    10.74    11.20    11.66    12.15    12.65    13.16    
 13.70    14.26    14.87    15.47    16.08    16.73    17.43    18.15    18.92    19.76    
 20.67    21.69    22.80    24.02    25.40    26.99    28.80    30.88    33.13    35.74    
 38.71    42.02    45.65    49.78    54.35    59.55    65.36    72.05    79.74    88.92    
 99.80    112.21   127.23   144.40   163.21   183.74   205.78   228.09   251.52   274.65   
 297.25   318.89   339.25   357.86   372.96   383.94   390.36   392.30   390.04   384.08   
 375.16   364.28   352.10   339.04   325.10   310.12   293.35   275.40   255.85   236.01   
 208.72   
727664.06 731517.85 731875.97 728825.62 721891.54 707220.39 642444.05 564444.74 480388.98 388498.35 
 299486.41 220931.18 160371.28 112420.51 83766.79 55317.55 45020.06 37715.26 32309.31 27785.18 
 24078.91 17852.81 14055.88 11180.77 8315.70  5450.63  3350.46  2008.65  1423.96  848.87   
 273.77   168.02   134.06   111.70   89.47    70.77    60.53    51.33    39.87    32.56    
 27.86    23.88    21.13    19.18    17.86    16.79    15.79    14.89    14.04    13.26    
 12.77    12.27    11.80    11.20    10.36    9.26     8.30     7.55     6.98     6.73     
 6.53     6.30     6.09     5.92     5.79     5.65     5.52     5.39     5.28     5.16     
 5.02     4.84     4.66     4.50     4.32     4.14     3.96     3.77     3.61     3.46     
 3.33     3.24     3.19     3.19     3.25     3.34     3.45     3.57     3.70     3.84     
 4.00     4.17     4.35     4.55     4.77     4.99     5.23     5.47     5.72     5.98     
 6.26     6.54     6.83     7.13     7.44     7.76     8.09     8.43     8.79     9.17     
 9.55     9.93     10.36    10.77    11.20    11.64    12.10    12.56    13.04    13.53    
 14.04    14.54    15.10    15.69    16.31    16.93    17.65    18.40    19.23    20.11    
 21.06    22.09    23.24    24.55    26.01    27.61    29.44    31.49    33.73    36.24    
 39.02    42.22    45.79    49.80    54.25    59.31    65.20    72.05    80.07    89.57    
 100.78   113.78   128.59   145.62   165.02   185.57   207.19   231.40   255.65   279.09   
 301.70   323.65   344.02   361.07   375.14   384.98   390.84   392.51   390.45   384.68   
 376.49   366.02   354.45   341.43   327.24   311.65   294.40   275.67   255.28   234.47   
 208.72   
727664.06 731007.58 730930.68 726621.24 716276.85 694297.25 653312.57 584081.30 485431.67 392968.14 
 315875.72 238783.31 162005.09 122253.96 87045.05 67834.79 52000.70 42981.71 31532.58 27787.01 
 24041.44 20304.36 17636.46 14979.53 12429.74 10184.12 7424.96  5812.17  4439.52  3403.88  
 2678.65  1955.00  1432.67  939.00   473.52   361.90   250.28   139.36   105.26   85.53    
 72.62    61.10    52.84    46.14    40.46    35.64    31.89    28.04    25.48    23.52    
 21.23    20.02    19.08    18.66    17.80    16.83    15.90    15.19    14.61    14.09    
 13.28    12.01    9.95     8.24     7.70     7.38     7.10     6.86     6.68     6.51     
 6.31     6.12     5.90     5.67     5.42     5.13     4.83     4.51     4.17     3.83     
 3.54     3.27     3.07     3.00     3.03     3.12     3.24     3.37     3.51     3.66     
 3.83     4.01     4.20     4.41     4.63     4.88     5.12     5.38     5.64     5.92     
 6.21     6.50     6.81     7.14     7.47     7.81     8.14     8.51     8.88     9.25     
 9.62     10.00    10.41    10.83    11.25    11.69    12.15    12.63    13.12    13.62    
 14.12    14.67    15.23    15.80    16.39    17.01    17.68    18.39    19.16    19.99    
 20.88    21.91    23.00    24.19    25.50    26.97    28.62    30.44    32.43    34.71    
 37.33    40.22    43.57    47.38    51.80    56.97    62.99    70.10    78.35    88.28    
 100.00   114.64   129.31   146.84   166.11   187.10   209.52   232.47   256.46   280.02   
 302.82   324.12   343.15   359.88   373.16   382.78   388.71   390.82   389.09   384.07   
 376.39   366.53   355.04   341.58   326.98   309.75   290.92   271.52   251.16   230.48   
 208.72   
727664.06 729397.21 727109.80 719332.01 700360.68 662640.62 605027.55 537480.50 455243.48 369533.34 
 288152.97 210955.41 154071.70 119037.53 95323.42 71727.61 57957.18 46013.93 39497.98 33299.40 
 26782.50 22809.64 18604.67 15456.86 12432.16 10386.46 8351.25  7234.07  6473.74  5840.86  
 5355.49  4914.56  4483.79  4070.43  3551.02  3050.94  2549.47  2105.99  1704.91  1400.82  
 1150.45  900.73   651.01   453.19   299.35   212.65   154.71   130.73   107.12   83.51    
 70.73    60.99    55.38    51.05    44.96    40.33    36.78    33.42    30.09    27.37    
 25.70    24.07    22.44    21.33    20.20    19.17    18.04    16.72    14.72    11.18    
 9.52     8.82     8.38     8.06     7.77     7.39     7.00     6.59     6.12     5.61     
 5.02     4.41     3.89     3.49     3.38     3.41     3.52     3.66     3.81     3.95     
 4.13     4.32     4.51     4.73     4.95     5.19     5.43     5.68     5.95     6.24     
 6.53     6.82     7.13     7.45     7.78     8.12     8.47     8.83     9.21     9.59     
 9.97     10.37    10.79    11.22    11.66    12.12    12.58    13.05    13.53    14.02    
 14.51    15.00    15.53    16.09    16.66    17.25    17.88    18.57    19.30    20.06    
 20.90    21.81    22.83    23.92    25.18    26.55    28.11    29.89    31.94    34.21    
 36.82    39.77    43.19    47.35    52.26    58.00    64.71    72.51    81.75    93.19    
 106.45   121.34   137.86   155.64   174.65   196.22   218.88   242.11   265.34   287.53   
 308.97   328.23   344.99   359.92   371.75   380.16   385.28   386.29   384.14   379.04   
 370.84   359.91   346.83   332.68   316.62   299.02   281.15   262.79   244.30   225.28   
 208.72   
727664.06 727988.62 723860.05 712188.19 686392.47 637891.74 569987.62 494176.20 408532.73 324635.91 
 259233.79 194012.14 150750.87 116776.10 93666.45 76534.35 63023.25 52508.11 44604.30 38664.08 
 33412.12 28964.17 24788.44 20622.37 17608.14 15330.25 13533.32 12080.35 11003.61 10090.47 
 9272.26  8496.65  7817.34  7246.21  6703.47  6219.65  5774.57  5414.90  5073.72  4724.75  
 4404.99  4100.37  3821.71  3555.59  3289.21  3039.49  2802.27  2565.04  2327.93  2104.04  
 1880.91  1646.37  1404.58  1172.58  946.25   734.66   559.18   434.82   344.55   292.82   
 241.09   189.52   154.32   124.62   101.98   85.01    71.55    60.20    51.17    42.96    
 36.65    31.55    27.37    24.51    21.97    19.90    17.59    14.85    10.94    9.56     
 8.83     7.88     6.71     5.17     3.71     3.07     3.12     3.21     3.31     3.43     
 3.57     3.71     3.87     4.06     4.26     4.46     4.69     4.92     5.18     5.44     
 5.69     5.96     6.23     6.53     6.83     7.15     7.48     7.83     8.19     8.56     
 8.96     9.36     9.78     10.20    10.64    11.08    11.57    12.06    12.56    13.05    
 13.56    14.07    14.63    15.20    15.78    16.38    17.06    17.73    18.48    19.28    
 20.13    21.06    22.08    23.14    24.32    25.62    27.22    28.92    30.82    33.05    
 35.52    38.33    41.86    46.01    51.01    57.03    64.21    72.90    83.03    95.19    
 108.99   125.61   142.26   161.40   181.67   202.87   225.02   246.70   268.94   290.07   
 309.89   327.82   343.59   357.16   367.84   375.92   380.80   382.36   380.89   376.44   
 369.57   360.11   348.07   333.63   318.18   302.06   285.04   267.97   249.90   232.52   
 208.72   
727664.06 727304.75 723152.33 712767.57 688596.62 641513.96 571682.29 492024.76 403065.54 318513.47 
 254496.82 190711.99 148030.20 115579.35 92605.34 75898.07 62851.16 52522.60 44370.18 38494.55 
 33472.54 29147.33 25480.74 21824.72 19116.92 17007.29 15346.22 14035.11 13024.31 12211.23 
 11450.17 10731.39 10148.78 9594.99  9097.90  8664.82  8275.43  7921.66  7594.14  7305.49  
 7016.51  6764.49  6531.91  6286.31  6048.65  5811.20  5555.95  5307.78  5053.11  4819.63  
 4599.88  4400.54  4216.06  4045.49  3873.38  3711.98  3549.40  3387.55  3219.37  3053.99  
 2889.83  2728.26  2566.69  2405.28  2256.49  2099.36  1945.26  1797.29  1651.17  1506.32  
 1367.40  1232.46  1108.20  987.55   872.49   760.54   655.87   560.89   476.54   401.06   
 332.36   277.38   222.40   167.62   128.82   93.86    68.59    44.90    18.56    5.64     
 3.28     2.61     2.41     2.27     2.26     2.22     2.06     1.51     1.55     1.62     
 1.63     1.63     1.58     1.61     1.67     1.74     1.85     1.88     1.90     2.01     
 2.09     2.07     2.18     2.31     2.32     2.44     2.57     2.74     2.92     3.00     
 3.08     3.17     3.25     3.36     3.47     3.59     3.72     3.87     4.03     4.20     
 4.38     4.59     4.83     5.07     5.31     5.58     5.92     6.30     6.76     7.31     
 7.95     8.69     9.59     10.76    12.08    13.68    15.55    17.64    20.08    22.72    
 25.62    28.67    32.01    35.59    39.51    43.68    48.15    52.84    57.86    62.87    
 67.97    73.28    78.58    84.08    89.57    95.29    101.21   107.37   113.30   119.95   
 126.16   132.80   138.42   143.77   150.40   158.13   166.77   176.27   187.09   199.16   
 208.72   
727664.06 725632.37 719203.51 704318.82 672916.36 618900.38 539872.05 452742.97 366717.03 289544.21 
 224912.62 177337.39 141470.47 114315.12 96091.21 77937.06 65348.95 55993.09 48407.55 42181.41 
 36772.89 31854.85 27455.77 23544.49 20317.26 17913.35 16156.92 14943.65 14041.06 13302.44 
 12687.07 12116.04 11661.96 11208.93 10755.90 10420.30 10121.14 9854.95  9596.09  9373.58  
 9185.64  8997.64  8827.95  8638.51  8401.12  8157.32  7892.76  7631.62  7396.81  7165.79  
 6947.76  6738.78  6540.23  6343.37  6150.11  5959.28  5780.41  5589.29  5400.47  5204.88  
 5011.24  4824.50  4640.09  4440.98  4240.13  4042.06  3856.36  3678.33  3491.60  3290.06  
 3099.56  2917.51  2739.61  2552.90  2374.85  2205.64  2046.87  1887.00  1738.66  1595.61  
 1462.95  1345.93  1233.01  1130.34  1027.74  925.14   836.68   758.27   690.23   630.64   
 580.78   529.97   482.24   438.44   396.90   359.30   325.57   295.13   268.89   244.26   
 222.27   200.85   184.21   168.97   154.52   140.67   128.37   116.18   103.99   92.51    
 82.10    73.07    65.02    57.26    49.39    42.12    35.30    29.23    23.91    19.96    
 12.82    4.52     2.99     2.88     2.94     3.06     3.21     3.34     3.52     3.67     
 3.97     4.45     4.90     5.43     6.06     6.70     7.00     6.71     6.68     7.07     
 7.54     8.13     8.93     9.86     11.74    13.05    14.64    16.64    18.88    21.41    
 24.28    27.38    30.19    32.97    36.79    40.80    45.10    49.47    53.91    58.46    
 63.05    67.75    72.44    77.30    82.23    87.40    92.59    97.77    103.24   109.31   
 114.38   120.37   126.39   132.72   140.03   148.12   157.45   168.42   180.74   194.84   
 208.72   
727664.06 724876.75 717672.45 701597.33 668311.20 612639.90 534965.98 447136.46 362229.25 302766.03 
 243302.83 184116.27 150060.23 123478.67 103120.51 88274.93 76545.46 66832.37 58918.19 52028.28 
 45837.95 40028.24 34950.53 30447.32 27153.67 23860.02 20579.80 18426.66 16775.07 15535.83 
 14563.38 13766.16 13083.75 12572.08 12180.79 11849.43 11545.46 11271.47 11012.53 10750.86 
 10524.96 10301.70 10082.72 9875.46  9685.23  9486.67  9254.93  9007.05  8738.62  8480.83  
 8248.34  8038.12  7829.74  7611.23  7391.38  7176.46  6975.89  6778.51  6581.80  6373.77  
 6150.10  5913.12  5660.40  5419.75  5191.16  4956.05  4726.92  4500.10  4264.90  4027.59  
 3779.56  3533.28  3299.88  3080.51  2871.06  2661.63  2452.29  2251.99  2068.23  1894.27  
 1731.30  1578.68  1444.26  1322.00  1215.35  1114.88  1023.94  942.30   872.20   812.31   
 761.59   703.79   648.08   595.86   548.71   507.52   471.12   438.15   409.25   382.70   
 358.77   339.46   322.99   308.20   295.19   283.21   272.32   262.42   253.82   246.31   
 238.55   230.82   226.45   220.69   214.22   207.70   201.34   194.53   187.58   180.98   
 174.05   166.64   159.12   151.26   142.90   134.73   126.04   116.93   108.22   97.57    
 85.48    70.97    49.33    28.39    17.12    13.78    13.29    7.99     4.24     4.38     
 4.75     5.23     5.85     6.65     7.71     9.02     10.57    12.46    14.79    17.63    
 20.78    24.31    30.21    42.49    34.55    37.19    41.49    45.96    50.66    55.49    
 60.24    64.90    69.50    74.03    78.36    82.65    86.81    90.99    95.19    99.51    
 103.86   108.90   114.67   121.07   128.18   136.45   146.29   157.13   169.80   184.88   
 208.72   
727664.06 723206.34 713355.87 692580.90 654448.24 593119.63 511860.99 424779.72 344218.22 275333.76 
 220654.76 180046.21 149566.38 127250.03 112988.89 98790.68 84592.47 75705.68 68302.98 61083.26 
 54726.73 48842.46 43167.03 38056.39 33619.98 29842.94 26669.98 24036.89 21742.65 19703.40 
 17918.31 16399.20 15177.64 14277.55 13632.21 13138.65 12693.59 12296.19 11947.39 11637.54 
 11328.08 11053.24 10805.06 10593.82 10391.29 10160.90 9910.70  9689.90  9484.10  9244.07  
 8978.53  8712.88  8469.16  8236.42  8011.35  7775.98  7534.13  7273.47  6994.29  6717.75  
 6445.63  6185.43  5921.83  5657.40  5394.55  5148.47  4903.74  4654.24  4388.32  4113.89  
 3848.97  3604.49  3362.04  3116.54  2874.21  2654.63  2438.06  2217.93  2018.91  1836.84  
 1674.47  1525.84  1382.11  1251.56  1154.86  1058.51  962.16   882.61   816.71   764.50   
 714.35   656.26   602.36   555.85   516.40   481.71   453.05   428.23   406.96   388.43   
 372.55   359.09   347.38   337.10   328.16   319.02   311.27   304.16   297.57   290.89   
 284.86   279.53   273.85   268.95   263.62   258.47   253.57   249.63   245.47   241.31   
 237.45   233.34   229.35   225.66   221.03   216.35   210.77   205.48   200.55   195.31   
 190.11   182.94   174.75   166.52   158.29   150.27   141.44   132.21   121.42   110.62   
 98.32    83.90    53.87    18.74    11.36    10.45    10.30    10.93    13.03    15.49    
 18.30    21.39    24.79    28.55    32.56    36.77    41.58    46.69    52.13    61.46    
 76.31    68.13    73.93    79.97    85.70    90.97    95.51    99.63    103.10   106.13   
