IESNA:LM-63-2002
[TEST] 1
[TESTLAB] AOK
[TESTDATE] 2022-05-27
[ISSUEDATE] 2022-05-27 13:51:43
[NEARFIELD] 
[LAMPPOSITION] 0,0
[OTHER] EVERFINE GO-2000A_V1 SYSTEM
[MANUFAC] AOK
[LUMCAT] A
[LUMINAIRE] AOK-600WiSF-HV-S5-00-5070-15D-P
[LAMPCAT] B
[LAMP] 5050
[BALLAST] E
[BALLASTCAT] F
[OTHER] 
[OTHER] Gamma(deg)    Fz(lm)      Ft(lm)     %Lum    %Lamp
[OTHER]   0- 10     37293.82    37293.82    45.45    45.45
[OTHER]  10- 20     22094.74    59388.57    72.37    72.37
[OTHER]  20- 30      7956.61    67345.18    82.07    82.07
[OTHER]  30- 40      4025.10    71370.28    86.97    86.97
[OTHER]  40- 50      3643.75    75014.03    91.42    91.42
[OTHER]  50- 60      3251.43    78265.47    95.38    95.38
[OTHER]  60- 70      2385.80    80651.27    98.29    98.29
[OTHER]  70- 80      1085.92    81737.20    99.61    99.61
[OTHER]  80- 90       142.53    81879.72    99.78    99.78
[OTHER]  90-100         2.60    81882.32    99.79    99.79
[OTHER] 100-110         4.24    81886.56    99.79    99.79
[OTHER] 110-120         6.39    81892.95    99.80    99.80
[OTHER] 120-130         8.28    81901.23    99.81    99.81
[OTHER] 130-140        10.24    81911.48    99.82    99.82
[OTHER] 140-150        18.60    81930.08    99.84    99.84
[OTHER] 150-160        47.75    81977.83    99.90    99.90
[OTHER] 160-170        58.80    82036.62    99.97    99.97
[OTHER] 170-180        21.84    82058.47   100.00   100.00
[OTHER] 
TILT=NONE
1 82058 1 181 25 1 2 0.150 0.200 0.000
1.000 1 597.607
0.0    1.0    2.0    3.0    4.0    5.0    6.0    7.0    8.0    9.0    
 10.0   11.0   12.0   13.0   14.0   15.0   16.0   17.0   18.0   19.0   
 20.0   21.0   22.0   23.0   24.0   25.0   26.0   27.0   28.0   29.0   
 30.0   31.0   32.0   33.0   34.0   35.0   36.0   37.0   38.0   39.0   
 40.0   41.0   42.0   43.0   44.0   45.0   46.0   47.0   48.0   49.0   
 50.0   51.0   52.0   53.0   54.0   55.0   56.0   57.0   58.0   59.0   
 60.0   61.0   62.0   63.0   64.0   65.0   66.0   67.0   68.0   69.0   
 70.0   71.0   72.0   73.0   74.0   75.0   76.0   77.0   78.0   79.0   
 80.0   81.0   82.0   83.0   84.0   85.0   86.0   87.0   88.0   89.0   
 90.0   91.0   92.0   93.0   94.0   95.0   96.0   97.0   98.0   99.0   
 100.0  101.0  102.0  103.0  104.0  105.0  106.0  107.0  108.0  109.0  
 110.0  111.0  112.0  113.0  114.0  115.0  116.0  117.0  118.0  119.0  
 120.0  121.0  122.0  123.0  124.0  125.0  126.0  127.0  128.0  129.0  
 130.0  131.0  132.0  133.0  134.0  135.0  136.0  137.0  138.0  139.0  
 140.0  141.0  142.0  143.0  144.0  145.0  146.0  147.0  148.0  149.0  
 150.0  151.0  152.0  153.0  154.0  155.0  156.0  157.0  158.0  159.0  
 160.0  161.0  162.0  163.0  164.0  165.0  166.0  167.0  168.0  169.0  
 170.0  171.0  172.0  173.0  174.0  175.0  176.0  177.0  178.0  179.0  
 180.0  
0.0    15.0   30.0   45.0   60.0   75.0   90.0   105.0  120.0  135.0  
 150.0  165.0  180.0  195.0  210.0  225.0  240.0  255.0  270.0  285.0  
 300.0  315.0  330.0  345.0  360.0  
566729.31 565934.28 560812.86 550531.36 531234.59 496907.61 438521.05 363370.58 287421.94 224570.10 
 175734.10 140922.94 115501.18 98717.89 82027.82 70259.42 60372.22 52026.36 45103.47 39325.20 
 34264.83 29762.89 25623.58 21939.65 18601.32 15860.81 13617.92 11832.80 10476.09 9124.80  
 8193.96  7463.97  6864.29  6453.06  6201.30  6029.19  5892.86  5729.60  5521.24  5296.62  
 5088.63  4910.51  4761.23  4637.56  4527.83  4415.45  4296.22  4173.70  4053.15  3921.37  
 3793.45  3676.03  3580.40  3493.45  3400.99  3292.82  3186.07  3093.79  3011.30  2932.13  
 2852.60  2756.45  2639.83  2479.27  2312.94  2143.75  1984.15  1833.89  1693.77  1560.59  
 1430.29  1295.61  1163.77  1031.97  900.16   789.24   677.36   573.58   473.23   387.73   
 304.08   232.60   170.46   126.10   96.10    66.28    44.30    25.23    8.98     3.71     
 2.87     3.00     2.79     2.86     3.02     3.19     3.39     3.58     3.79     4.01     
 4.24     4.49     4.74     5.01     5.28     5.55     5.83     6.13     6.43     6.73     
 7.04     7.35     7.67     8.00     8.34     8.69     9.03     9.39     9.75     10.13    
 10.50    10.89    11.28    11.66    12.05    12.44    12.84    13.24    13.63    14.01    
 14.40    14.78    15.17    15.58    16.02    16.52    17.10    17.86    18.78    19.87    
 21.21    22.84    24.83    27.43    30.71    34.82    40.02    46.59    54.78    64.80    
 77.32    92.11    108.64   126.38   145.31   165.66   186.64   207.51   228.30   249.78   
 271.25   289.98   307.68   323.05   335.88   345.97   353.21   357.52   359.00   357.59   
 353.34   346.07   336.57   325.26   312.61   299.03   284.97   270.55   256.18   241.93   
 226.26   
566729.31 565969.49 560864.00 550620.68 531273.71 495869.47 437470.17 363127.15 301342.62 239558.10 
 177990.58 143622.76 117737.38 98362.84 83545.09 71950.95 62256.98 54167.23 47511.55 41964.18 
 37002.23 32429.81 28260.49 24690.58 21126.30 18213.82 15763.51 13668.93 11973.34 10523.18 
 9278.54  8182.39  7302.76  6743.16  6419.12  6173.14  5948.42  5711.13  5465.37  5219.64  
 5020.35  4870.78  4744.33  4628.90  4530.15  4447.10  4358.33  4262.01  4178.62  4097.54  
 4004.73  3907.40  3801.68  3702.69  3605.81  3504.50  3403.61  3305.40  3189.24  3049.60  
 2901.57  2762.79  2624.00  2485.15  2340.95  2209.35  2078.21  1948.72  1824.95  1699.99  
 1571.83  1430.92  1292.36  1135.17  994.94   854.37   733.14   616.33   508.51   415.56   
 329.01   254.13   179.48   130.31   95.24    66.67    44.42    25.71    9.82     3.73     
 3.12     3.33     3.01     3.00     3.01     3.12     3.29     3.48     3.67     3.90     
 4.13     4.38     4.63     4.90     5.17     5.45     5.71     6.00     6.30     6.59     
 6.89     7.20     7.52     7.84     8.16     8.49     8.85     9.21     9.56     9.90     
 10.27    10.64    11.03    11.42    11.79    12.17    12.57    12.96    13.36    13.74    
 14.13    14.53    14.94    15.39    15.92    16.51    17.21    18.04    19.03    20.21    
 21.65    23.39    25.48    28.01    31.17    35.18    40.15    46.56    54.65    64.79    
 77.09    91.43    107.15   125.95   144.76   164.88   185.68   206.24   227.78   248.50   
 268.51   287.64   304.84   320.40   333.12   342.98   349.96   354.15   355.39   353.66   
 349.04   341.92   332.71   321.66   309.65   296.81   283.36   269.80   254.73   239.29   
 226.26   
566729.31 564725.41 558569.55 546512.73 523833.61 483855.28 421170.44 345712.73 274077.77 217332.18 
 174493.78 142603.55 117446.23 100574.06 83791.55 72163.02 63026.49 55796.93 49890.71 44843.32 
 40203.80 35807.63 31549.51 27678.85 24242.32 21288.16 18729.32 16554.83 14620.65 12935.86 
 11529.27 10126.06 8722.86  7692.79  6935.23  6366.26  5929.26  5607.49  5368.30  5197.76  
 5066.76  4969.28  4869.39  4763.01  4666.24  4581.27  4507.73  4437.95  4352.87  4253.09  
 4144.98  4040.93  3944.18  3825.75  3688.53  3553.50  3426.56  3300.53  3184.59  3076.02  
 2971.16  2868.24  2754.58  2631.52  2497.87  2351.20  2190.67  2030.78  1876.54  1720.76  
 1568.19  1423.32  1281.34  1142.66  1004.03  865.39   745.12   629.80   523.43   421.55   
 334.92   252.54   184.29   128.07   95.27    62.77    40.23    22.03    7.89     3.77     
 3.53     3.43     3.31     3.26     3.27     3.41     3.57     3.76     3.98     4.22     
 4.48     4.72     4.99     5.27     5.54     5.82     6.10     6.39     6.70     7.00     
 7.30     7.62     7.94     8.26     8.58     8.92     9.26     9.60     9.95     10.31    
 10.67    11.04    11.41    11.78    12.16    12.53    12.93    13.32    13.72    14.12    
 14.56    15.03    15.55    16.09    16.75    17.51    18.38    19.43    20.60    22.01    
 23.63    25.51    27.74    30.54    34.04    38.41    43.90    50.69    59.00    69.31    
 82.01    96.53    112.64   129.89   147.87   167.12   188.21   209.32   229.92   250.42   
 270.92   289.90   306.39   320.56   332.71   341.36   347.01   349.64   349.02   345.67   
 339.55   331.53   321.72   311.91   300.25   287.83   274.49   260.93   246.71   232.18   
 226.26   
566729.31 564557.85 558337.45 546263.34 523224.99 481264.60 419942.03 347596.77 291035.11 234473.48 
 178108.09 146336.32 121504.09 101131.00 84921.86 72478.67 63080.80 55697.40 49831.68 44892.67 
 40445.79 36211.94 32120.62 28354.46 25228.90 22107.92 19503.22 17238.71 15294.86 13537.32 
 11921.69 10362.71 8995.28  7861.87  6999.36  6359.81  5927.74  5647.36  5438.86  5256.58  
 5106.92  4983.60  4875.88  4784.46  4703.58  4622.19  4528.25  4436.79  4348.89  4253.23  
 4149.80  4037.07  3925.68  3827.17  3738.55  3652.65  3551.58  3429.76  3297.37  3160.10  
 3021.30  2891.34  2755.90  2620.46  2485.07  2356.05  2229.01  2098.57  1956.76  1813.21  
 1658.44  1504.06  1366.99  1231.23  1091.74  952.93   821.01   696.49   576.03   472.52   
 376.44   302.35   228.27   154.40   104.30   68.89    44.71    26.20    10.98    3.72     
 3.39     3.29     3.16     3.11     3.16     3.26     3.43     3.65     3.89     4.15     
 4.40     4.66     4.92     5.21     5.49     5.76     6.05     6.34     6.65     6.96     
 7.27     7.58     7.90     8.24     8.58     8.92     9.27     9.62     9.96     10.32    
 10.69    11.08    11.47    11.85    12.23    12.62    13.03    13.45    13.88    14.35    
 14.86    15.39    15.96    16.59    17.30    18.10    19.05    20.16    21.36    22.80    
 24.55    26.54    28.98    31.91    35.53    40.11    45.72    52.73    61.22    71.49    
 83.61    97.31    113.77   130.24   148.40   167.59   187.90   207.97   228.89   249.16   
 268.76   286.91   303.03   317.21   328.39   336.53   341.21   342.77   341.25   337.28   
 331.37   324.32   315.60   305.43   294.39   282.64   270.01   257.07   243.35   229.52   
 226.26   
566729.31 563463.63 556193.37 541963.45 515463.08 471197.08 409555.29 338117.43 271510.51 217062.32 
 175059.42 143107.32 117741.63 99716.22 81770.18 68982.29 59212.30 51343.70 44890.63 39436.14 
 34775.62 30427.77 26518.56 22965.69 19899.99 17203.11 14929.66 13017.50 11639.80 10268.89 
 8897.98  7963.21  7216.14  6688.09  6332.94  6076.88  5883.03  5720.21  5585.23  5457.04  
 5331.76  5208.94  5097.88  4988.57  4876.86  4763.91  4653.78  4534.77  4413.64  4298.56  
 4195.17  4100.11  4006.37  3911.43  3811.21  3703.65  3593.58  3485.90  3364.49  3236.85  
 3102.27  2960.30  2814.63  2681.05  2556.11  2429.65  2298.33  2162.49  2027.82  1881.82  
 1726.39  1568.42  1416.92  1275.59  1136.64  997.73   858.81   729.02   614.10   506.93   
 406.52   309.97   232.35   167.53   126.90   86.57    46.25    25.92    11.85    3.89     
 3.32     3.22     3.16     3.21     3.34     3.55     3.78     4.02     4.28     4.54     
 4.80     5.07     5.34     5.62     5.91     6.20     6.49     6.80     7.11     7.43     
 7.74     8.07     8.41     8.75     9.09     9.45     9.80     10.15    10.53    10.90    
 11.28    11.64    12.03    12.41    12.79    13.18    13.58    13.98    14.41    14.86    
 15.33    15.84    16.39    17.05    17.81    18.65    19.64    20.78    22.14    23.76    
 25.61    27.80    30.46    33.80    37.98    43.14    49.37    56.86    65.66    76.24    
 89.01    103.26   118.95   135.74   153.26   171.57   191.80   212.50   233.05   253.59   
 270.63   287.60   302.08   314.01   323.65   330.21   333.99   335.03   334.65   331.16   
 325.54   318.16   309.49   299.92   289.44   278.04   266.02   253.47   240.47   227.04   
 226.26   
566729.31 563583.25 556573.48 543204.64 517940.00 475907.84 418913.48 351534.92 294783.43 238031.97 
 181454.81 146737.84 119719.44 98449.13 81665.06 68488.78 57907.46 49105.57 41790.13 35873.85 
 30892.65 27048.23 23203.81 19366.87 16421.11 13914.84 11834.49 10250.80 9086.84  8234.17  
 7600.94  7122.91  6750.40  6459.18  6219.12  6024.89  5869.54  5748.00  5637.78  5523.91  
 5410.18  5310.99  5220.76  5114.62  5001.48  4877.85  4762.75  4647.18  4524.71  4402.34  
 4290.22  4190.37  4099.44  4009.13  3913.63  3810.82  3707.17  3601.00  3485.00  3359.65  
 3232.70  3109.00  2984.92  2863.64  2739.04  2614.44  2489.78  2358.72  2222.08  2078.34  
 1926.93  1777.52  1623.47  1467.73  1309.81  1151.58  1000.26  864.09   734.94   612.49   
 497.50   390.36   310.32   230.27   150.50   99.66    60.63    35.04    18.38    6.08     
 3.59     2.92     2.87     3.07     3.29     3.53     3.76     4.00     4.26     4.52     
 4.79     5.06     5.34     5.62     5.92     6.21     6.52     6.82     7.15     7.47     
 7.78     8.11     8.46     8.81     9.16     9.53     9.88     10.25    10.61    11.00    
 11.38    11.77    12.17    12.56    12.93    13.31    13.69    14.07    14.47    14.87    
 15.30    15.78    16.30    16.88    17.54    18.28    19.20    20.31    21.58    23.12    
 25.03    27.31    30.12    33.54    37.77    43.02    49.38    57.04    66.08    76.76    
 89.07    102.87   119.01   135.18   153.04   171.70   191.14   210.24   229.55   247.93   
 265.20   280.97   294.80   307.04   316.98   324.71   330.07   333.62   333.82   332.26   
 328.63   323.01   315.59   306.55   297.09   285.75   273.17   260.24   246.83   233.24   
 226.26   
566729.31 563715.74 556850.31 544298.28 521211.12 482860.72 431137.96 369111.95 304385.41 248889.09 
 193573.87 155131.93 125726.69 102646.81 84904.86 70958.91 59724.36 50262.82 42525.16 36281.13 
 31150.75 27295.22 23439.69 19592.89 16528.05 13927.09 11868.61 10277.82 9118.57  8284.58  
 7688.95  7230.67  6870.35  6583.10  6350.61  6147.88  5979.06  5831.57  5700.76  5590.01  
 5488.94  5410.04  5299.13  5183.29  5083.52  4984.79  4872.61  4749.47  4625.92  4501.33  
 4387.85  4286.63  4196.44  4113.13  4029.94  3942.36  3847.21  3741.40  3626.45  3500.60  
 3380.23  3259.46  3137.60  3023.23  2912.88  2783.68  2643.38  2503.08  2362.77  2221.25  
 2072.93  1918.95  1757.57  1596.84  1438.01  1282.44  1128.76  974.65   831.71   696.71   
 572.75   453.50   347.37   263.87   180.63   118.72   71.17    39.38    18.66    5.99     
 1.04     0.93     0.95     1.01     1.08     1.15     1.22     1.31     1.40     1.50     
 1.61     1.73     1.86     2.00     2.16     2.31     2.48     2.66     2.84     3.02     
 3.22     3.41     3.61     3.81     4.01     4.22     4.43     4.63     4.83     5.03     
 5.23     5.42     5.63     5.81     6.01     6.19     6.39     6.57     6.77     6.96     
 7.17     7.39     7.61     7.86     8.14     8.44     8.79     9.19     9.65     10.20    
 10.83    11.57    12.44    13.52    14.74    16.20    17.88    19.79    21.94    24.40    
 27.11    30.09    33.40    36.98    40.81    44.96    49.33    53.92    58.81    63.74    
 68.80    73.97    79.15    84.47    89.73    95.11    100.46   105.91   112.45   117.94   
 123.41   129.17   135.45   142.34   150.18   159.41   170.06   182.02   195.53   209.99   
 226.26   
566729.31 562793.30 555198.79 541843.11 519003.95 481877.51 431315.08 370111.84 306821.95 246589.98 
 195461.91 154856.08 124862.54 107090.98 89417.99 71745.00 60773.67 51847.82 44664.70 38595.28 
 33427.27 28866.80 24763.28 21068.65 17813.68 15045.36 12822.55 11420.16 10023.85 8627.54  
 7912.09  7367.19  6946.90  6616.52  6365.45  6171.52  6018.73  5889.96  5766.46  5640.29  
 5526.32  5430.22  5335.86  5228.49  5119.03  5004.43  4882.68  4756.91  4628.75  4505.31  
 4388.15  4280.57  4181.37  4079.88  3968.51  3858.23  3753.09  3647.60  3530.26  3401.77  
 3267.66  3138.20  3011.98  2883.81  2755.63  2629.02  2503.62  2378.62  2237.04  2085.84  
 1928.65  1771.80  1613.41  1451.43  1287.04  1141.90  996.93   851.97   719.17   597.66   
 484.57   382.35   286.43   206.59   143.51   98.88    54.43    29.58    14.73    3.33     
 1.19     1.14     1.14     1.17     1.19     1.24     1.30     1.38     1.46     1.56     
 1.67     1.79     1.91     2.05     2.19     2.35     2.51     2.67     2.84     3.02     
 3.22     3.40     3.59     3.79     3.99     4.19     4.37     4.57     4.76     4.96     
 5.15     5.34     5.52     5.72     5.91     6.11     6.29     6.48     6.68     6.89     
 7.10     7.33     7.57     7.84     8.15     8.50     8.89     9.33     9.84     10.40    
 11.10    11.91    12.86    13.97    15.28    16.83    18.57    20.53    22.80    25.28    
 28.11    31.12    34.40    38.03    41.86    45.87    50.20    54.73    59.37    64.06    
 68.88    73.78    78.70    83.77    88.77    93.89    99.03    104.25   109.53   115.91   
 121.56   127.50   133.91   140.84   148.72   158.07   168.81   181.10   194.70   209.76   
 226.26   
566729.31 563213.66 556015.60 544233.92 524266.74 491933.19 446784.86 390432.64 327021.03 272986.95 
 218952.90 165142.73 131702.46 107296.49 88974.33 75288.46 64561.01 56046.41 49039.63 43255.50 
 38178.02 33471.97 29185.80 25458.25 21737.98 18657.19 16053.83 13842.62 11966.92 10449.20 
 9220.24  8217.15  7404.80  6812.37  6429.82  6172.41  5964.46  5792.36  5643.40  5512.67  
 5385.59  5267.12  5147.18  5030.81  4916.11  4808.99  4707.77  4602.85  4486.47  4370.54  
 4258.51  4142.95  4029.04  3921.35  3813.37  3705.77  3596.15  3483.77  3371.30  3250.82  
 3121.87  2979.50  2837.20  2701.75  2576.29  2450.72  2315.66  2182.08  2039.77  1896.63  
 1745.34  1591.76  1442.82  1304.71  1165.19  1031.51  888.63   753.24   637.42   529.95   
 426.98   329.99   254.09   178.45   123.61   80.25    48.40    26.98    14.60    3.11     
 1.77     1.62     1.45     1.23     1.04     1.06     1.11     1.18     1.26     1.35     
 1.44     1.54     1.65     1.77     1.91     2.05     2.19     2.35     2.51     2.68     
 2.85     3.02     3.21     3.40     3.60     3.79     3.98     4.17     4.36     4.55     
 4.74     4.94     5.13     5.32     5.50     5.69     5.88     6.08     6.28     6.48     
 6.70     6.95     7.20     7.48     7.79     8.13     8.53     8.98     9.51     10.09    
 10.75    11.52    12.39    13.43    14.63    16.04    17.66    19.55    21.68    24.12    
 26.72    29.64    32.93    36.50    40.32    44.46    48.86    53.40    58.27    63.24    
 68.36    73.56    78.77    84.07    89.34    94.62    99.88    105.14   110.39   115.85   
 121.42   127.39   134.65   141.76   149.73   158.88   169.55   181.55   195.07   209.84   
 226.26   
566729.31 562480.29 554695.40 542828.96 524632.78 495051.93 451404.68 394263.39 330589.01 265950.74 
 208183.79 162117.02 128421.92 109546.19 90789.99 72033.80 61950.93 54169.03 47920.49 42456.08 
 37599.76 33098.55 28938.35 24997.22 21451.02 18415.24 15910.49 13808.89 12030.23 10666.55 
 9306.88  8271.37  7392.94  6742.92  6317.18  6021.63  5805.26  5626.59  5465.40  5309.07  
 5165.51  5035.62  4918.98  4819.99  4736.29  4647.55  4547.60  4437.20  4343.46  4247.46  
 4143.35  4033.72  3917.28  3809.52  3712.20  3619.36  3517.79  3401.40  3270.15  3130.80  
 2995.77  2863.54  2730.16  2595.59  2455.42  2326.76  2200.98  2070.85  1927.13  1782.51  
 1631.89  1482.03  1346.90  1209.12  1074.98  940.88   814.38   686.10   563.17   458.29   
 364.17   284.47   211.66   149.08   107.73   66.59    42.44    25.63    10.73    2.22     
 1.65     1.57     1.51     1.46     1.39     1.30     1.28     1.28     1.36     1.44     
 1.52     1.63     1.72     1.83     1.96     2.09     2.23     2.37     2.52     2.68     
 2.84     3.01     3.18     3.37     3.55     3.73     3.92     4.11     4.30     4.50     
 4.68     4.86     5.04     5.23     5.41     5.59     5.77     5.97     6.17     6.38     
 6.60     6.83     7.09     7.37     7.69     8.03     8.42     8.87     9.36     9.90     
 10.52    11.25    12.08    13.06    14.18    15.47    17.00    18.74    20.78    23.13    
 25.74    28.65    31.87    35.45    39.30    43.04    47.46    52.16    57.07    62.24    
 67.58    73.17    78.80    84.60    90.21    95.82    101.31   106.65   111.79   116.78   
