IESNA:LM-63-2002
[TEST] 1
[TESTLAB] AOK
[TESTDATE] 2022-05-19
[ISSUEDATE] 2022-05-19 19:02:12
[NEARFIELD] 
[LAMPPOSITION] 0,0
[OTHER] EVERFINE GO-2000A_V1 SYSTEM
[MANUFAC] AOK
[LUMCAT] A
[LUMINAIRE] AOK-800WiSF-NV-S5-00-5070-30D-P
[LAMPCAT] B
[LAMP] 5050
[BALLAST] E
[BALLASTCAT] F
[OTHER] 
[OTHER] Gamma(deg)    Fz(lm)      Ft(lm)     %Lum    %Lamp
[OTHER]   0- 10     22764.05    22764.05    20.02    20.02
[OTHER]  10- 20     36940.02    59704.07    52.51    52.51
[OTHER]  20- 30     21900.82    81604.89    71.77    71.77
[OTHER]  30- 40     13851.53    95456.43    83.95    83.95
[OTHER]  40- 50      8400.90   103857.33    91.33    91.33
[OTHER]  50- 60      4628.88   108486.21    95.41    95.41
[OTHER]  60- 70      2561.23   111047.44    97.66    97.66
[OTHER]  70- 80      1259.83   112307.26    98.77    98.77
[OTHER]  80- 90       526.86   112834.12    99.23    99.23
[OTHER]  90-100       251.16   113085.29    99.45    99.45
[OTHER] 100-110       160.46   113245.74    99.59    99.59
[OTHER] 110-120       120.28   113366.02    99.70    99.70
[OTHER] 120-130        91.14   113457.16    99.78    99.78
[OTHER] 130-140        67.69   113524.85    99.84    99.84
[OTHER] 140-150        55.77   113580.61    99.89    99.89
[OTHER] 150-160        56.99   113637.60    99.94    99.94
[OTHER] 160-170        52.39   113689.99    99.98    99.98
[OTHER] 170-180        20.55   113710.55   100.00   100.00
[OTHER] 
TILT=NONE
1 1.1371e+005 1 181 25 1 2 0.150 0.200 0.000
1.000 1 800.513
0.0    1.0    2.0    3.0    4.0    5.0    6.0    7.0    8.0    9.0    
 10.0   11.0   12.0   13.0   14.0   15.0   16.0   17.0   18.0   19.0   
 20.0   21.0   22.0   23.0   24.0   25.0   26.0   27.0   28.0   29.0   
 30.0   31.0   32.0   33.0   34.0   35.0   36.0   37.0   38.0   39.0   
 40.0   41.0   42.0   43.0   44.0   45.0   46.0   47.0   48.0   49.0   
 50.0   51.0   52.0   53.0   54.0   55.0   56.0   57.0   58.0   59.0   
 60.0   61.0   62.0   63.0   64.0   65.0   66.0   67.0   68.0   69.0   
 70.0   71.0   72.0   73.0   74.0   75.0   76.0   77.0   78.0   79.0   
 80.0   81.0   82.0   83.0   84.0   85.0   86.0   87.0   88.0   89.0   
 90.0   91.0   92.0   93.0   94.0   95.0   96.0   97.0   98.0   99.0   
 100.0  101.0  102.0  103.0  104.0  105.0  106.0  107.0  108.0  109.0  
 110.0  111.0  112.0  113.0  114.0  115.0  116.0  117.0  118.0  119.0  
 120.0  121.0  122.0  123.0  124.0  125.0  126.0  127.0  128.0  129.0  
 130.0  131.0  132.0  133.0  134.0  135.0  136.0  137.0  138.0  139.0  
 140.0  141.0  142.0  143.0  144.0  145.0  146.0  147.0  148.0  149.0  
 150.0  151.0  152.0  153.0  154.0  155.0  156.0  157.0  158.0  159.0  
 160.0  161.0  162.0  163.0  164.0  165.0  166.0  167.0  168.0  169.0  
 170.0  171.0  172.0  173.0  174.0  175.0  176.0  177.0  178.0  179.0  
 180.0  
0.0    15.0   30.0   45.0   60.0   75.0   90.0   105.0  120.0  135.0  
 150.0  165.0  180.0  195.0  210.0  225.0  240.0  255.0  270.0  285.0  
 300.0  315.0  330.0  345.0  360.0  
261168.52 257556.36 254465.23 254115.65 253755.42 234920.35 219329.10 205087.46 184250.51 170263.04 
 151605.05 133684.00 119923.40 106209.20 92494.99 85866.33 78815.40 71313.28 51664.24 39842.44 
 28177.59 21895.97 13401.25 7168.16  960.77   133.51   83.40    40.83    29.59    24.57    
 21.54    18.32    16.96    15.85    14.35    12.68    11.46    10.37    9.55     8.97     
 8.49     8.22     7.97     7.57     7.19     6.83     6.52     6.14     5.87     5.77     
 5.70     5.54     5.35     5.23     5.15     5.00     4.89     4.75     4.65     4.59     
 4.57     4.53     4.49     4.47     4.47     4.47     4.47     4.46     4.45     4.44     
 4.43     4.42     4.42     4.41     4.35     4.30     4.24     4.18     4.14     4.12     
 4.09     4.08     4.08     4.08     4.08     4.09     4.13     4.21     4.32     4.44     
 4.58     4.70     4.87     5.04     5.22     5.41     5.63     5.89     6.17     6.47     
 6.80     7.17     7.55     7.94     8.37     8.84     9.33     9.82     10.33    10.91    
 11.56    12.27    13.03    13.83    14.73    15.68    16.67    17.71    18.90    20.17    
 21.51    22.91    24.40    26.07    27.85    29.73    31.74    34.01    36.44    39.03    
 41.78    44.69    47.76    51.00    54.63    58.50    62.65    67.00    71.68    76.64    
 82.05    88.06    94.73    101.91   109.55   117.64   125.97   135.15   144.99   155.12   
 165.30   175.58   185.81   196.41   206.82   216.95   226.62   236.53   246.45   254.64   
 262.42   269.77   276.75   283.09   288.70   292.87   295.76   297.40   297.72   296.60   
 293.73   289.90   285.57   280.44   274.94   267.83   259.59   250.51   240.42   228.90   
 215.82   
261168.52 257425.48 253970.10 251792.23 250995.63 237380.42 223770.54 210680.10 195269.00 177061.42 
 159869.48 143204.38 126643.72 101134.46 91614.13 84245.67 76592.38 69270.64 61885.63 45441.11 
 34586.71 26736.36 18894.42 12100.20 7712.37  4162.10  642.18   430.00   311.63   193.85   
 135.59   91.05    98.20    99.65    56.70    34.29    25.59    21.19    18.81    17.17    
 15.96    15.10    14.13    13.14    12.17    11.38    10.73    9.95     8.96     8.28     
 7.71     7.36     7.13     6.86     6.61     6.28     5.98     5.74     5.57     5.41     
 5.36     5.33     5.27     5.16     5.02     4.89     4.75     4.62     4.49     4.38     
 4.29     4.19     4.11     4.06     3.98     3.91     3.83     3.76     3.70     3.64     
 3.61     3.61     3.61     3.62     3.65     3.71     3.79     3.88     3.98     4.11     
 4.24     4.38     4.52     4.70     4.89     5.11     5.34     5.58     5.86     6.18     
 6.51     6.86     7.22     7.61     8.03     8.49     8.98     9.48     10.02    10.59    
 11.19    11.85    12.59    13.38    14.19    15.13    16.13    17.20    18.27    19.45    
 20.73    22.16    23.71    25.33    27.03    28.94    30.95    33.15    35.47    37.96    
 40.58    43.41    46.44    49.65    53.05    56.75    60.72    65.04    69.48    74.39    
 79.89    85.81    92.13    99.06    106.54   114.62   123.82   133.02   142.55   152.71   
 162.93   173.58   184.01   194.57   205.14   215.44   225.56   235.11   244.19   252.75   
 260.83   268.34   275.51   282.49   287.87   292.50   295.79   297.30   297.64   296.63   
 294.27   291.27   287.48   282.78   277.29   270.72   263.06   254.39   244.47   233.68   
 215.82   
261168.52 257390.65 253968.42 250314.06 248781.61 246137.21 236251.86 213279.50 198863.84 184593.56 
 164273.06 151663.35 131437.79 115608.58 97073.79 78509.61 70488.23 63246.83 55637.40 48925.77 
 42492.06 31644.98 25085.21 19879.29 14318.71 11434.15 8311.35  5185.76  1378.13  905.00   
 473.82   291.00   202.15   166.26   134.14   107.87   81.66    70.14    56.08    45.66    
 40.18    34.64    30.71    27.29    24.84    23.24    21.37    19.97    18.38    16.92    
 14.54    12.91    12.17    11.22    10.06    9.05     8.75     8.75     8.68     8.39     
 7.99     7.57     7.20     6.88     6.64     6.42     6.21     6.02     5.83     5.65     
 5.46     5.24     5.06     4.85     4.67     4.47     4.28     4.10     3.93     3.79     
 3.67     3.57     3.51     3.51     3.54     3.62     3.71     3.84     3.97     4.10     
 4.24     4.41     4.59     4.79     5.02     5.24     5.48     5.76     6.05     6.36     
 6.69     7.05     7.43     7.82     8.24     8.72     9.20     9.69     10.22    10.81    
 11.45    12.16    12.90    13.67    14.52    15.47    16.43    17.47    18.63    19.91    
 21.27    22.69    24.19    25.86    27.61    29.46    31.42    33.58    35.85    38.28    
 40.79    43.48    46.41    49.56    52.93    56.48    60.32    64.55    69.09    73.99    
 79.25    84.96    91.31    98.23    105.65   113.73   122.16   131.10   140.48   150.47   
 160.82   171.18   181.54   192.14   202.87   213.30   223.18   233.66   244.15   252.76   
 261.34   269.41   277.28   283.76   289.23   293.62   296.85   298.68   299.90   299.10   
 297.21   294.53   291.54   287.66   282.34   275.56   267.64   258.85   249.40   238.32   
 215.82   
261168.52 257727.92 254480.62 250906.81 245917.22 240484.05 235050.87 229535.95 215819.75 193386.63 
 179151.28 163181.86 145743.48 128510.79 114144.85 96080.42 82758.70 70902.87 55596.08 46064.65 
 40060.15 35251.07 31276.28 28112.04 25268.65 22404.43 17226.02 14027.36 11487.17 8563.07  
 7071.29  5035.92  3625.97  2216.01  815.37   528.37   363.28   276.93   191.02   152.04   
 123.21   100.27   83.45    70.58    60.41    52.02    45.03    39.83    35.88    32.04    
 29.07    26.90    25.15    23.18    20.25    16.95    13.28    12.55    12.03    11.63    
 11.05    10.50    10.01    9.57     9.17     8.80     8.40     8.07     7.78     7.45     
 7.12     6.81     6.50     6.21     5.90     5.56     5.20     4.83     4.46     4.13     
 3.84     3.59     3.41     3.37     3.41     3.51     3.61     3.74     3.88     4.03     
 4.19     4.36     4.55     4.76     4.98     5.22     5.47     5.73     6.02     6.34     
 6.67     7.02     7.39     7.79     8.24     8.73     9.22     9.72     10.29    10.89    
 11.52    12.20    12.96    13.75    14.60    15.55    16.57    17.63    18.73    19.92    
 21.22    22.65    24.19    25.76    27.40    29.16    31.12    33.15    35.29    37.56    
 40.03    42.62    45.37    48.33    51.49    54.86    58.58    62.61    66.90    71.58    
 76.85    82.53    88.66    95.44    102.66   110.59   119.60   128.60   137.75   147.85   
 157.95   168.48   178.97   189.76   200.52   211.18   221.83   232.01   242.07   251.64   
 260.52   268.67   275.91   282.50   287.98   292.58   296.36   298.47   299.62   299.74   
 298.83   296.88   294.02   290.08   284.93   278.15   270.03   261.32   251.44   240.76   
 215.82   
261168.52 258442.05 255280.63 251135.45 244512.12 236669.99 229927.84 222535.21 214586.97 205302.28 
 194319.56 180930.30 160899.21 141577.19 126297.09 111759.16 97228.51 82697.84 70171.96 61085.76 
 50571.97 43495.99 38286.43 33207.35 29596.41 24694.72 22138.96 20091.09 18144.14 16397.61 
 14884.08 13412.45 11878.76 10347.26 8815.79  7203.81  5688.92  4521.02  3551.07  2899.14  
 2237.01  1638.46  1137.75  829.22   522.96   359.39   261.77   205.95   163.55   131.72   
 112.60   93.61    83.90    71.53    61.21    54.42    48.58    42.62    37.28    33.55    
 30.37    27.01    24.01    19.57    15.81    14.41    13.65    12.93    12.08    11.34    
 10.73    10.10    9.57     9.09     8.52     8.03     7.54     6.97     6.32     5.66     
 5.04     4.49     4.00     3.80     3.79     3.88     3.99     4.12     4.27     4.41     
 4.58     4.76     4.96     5.18     5.40     5.63     5.89     6.18     6.48     6.79     
 7.13     7.49     7.88     8.29     8.73     9.20     9.68     10.21    10.78    11.39    
 12.06    12.77    13.52    14.35    15.25    16.19    17.16    18.17    19.32    20.55    
 21.83    23.19    24.62    26.17    27.82    29.55    31.41    33.39    35.52    37.75    
 40.12    42.59    45.29    48.22    51.35    54.74    58.39    62.49    66.94    71.84    
 77.11    82.97    89.46    96.49    104.03   112.30   121.14   130.24   139.82   149.93   
 160.41   170.93   181.43   192.12   202.94   213.52   223.63   234.20   244.78   253.94   
 262.37   269.93   277.00   283.35   288.67   293.77   297.37   299.97   301.28   301.59   
 301.43   299.16   295.63   291.12   285.83   279.28   272.04   263.97   254.58   244.70   
 215.82   
261168.52 259384.95 257001.15 253179.64 246333.42 238547.86 230757.54 222472.68 213470.96 202596.18 
 190919.86 178967.29 164875.15 151132.83 136205.24 122698.09 109159.12 96808.56 85189.13 75508.10 
 66878.13 59708.71 53364.55 47328.81 42571.21 38884.52 35860.07 32489.70 29375.66 26878.89 
 24701.18 22521.87 20139.93 18449.06 16842.71 15323.00 13861.30 12540.29 11374.10 10259.59 
 9240.91  8329.42  7423.80  6626.48  5857.02  5241.21  4573.12  4012.49  3485.35  3017.59  
 2549.84  2082.82  1691.01  1326.47  1029.40  784.37   606.98   475.78   386.41   319.43   
 267.91   216.39   165.05   132.58   109.41   91.30    75.81    63.10    52.27    44.42    
 38.04    32.69    28.75    24.49    18.26    16.48    15.25    13.53    12.12    10.93    
 9.56     7.88     5.81     4.08     3.55     3.61     3.70     3.78     3.88     4.00     
 4.13     4.28     4.45     4.65     4.87     5.10     5.34     5.59     5.87     6.16     
 6.47     6.78     7.12     7.49     7.88     8.32     8.82     9.33     9.86     10.43    
 11.06    11.74    12.48    13.23    14.02    14.91    15.89    16.91    17.94    19.05    
 20.24    21.54    22.98    24.46    26.00    27.67    29.49    31.46    33.57    35.73    
 38.09    40.62    43.34    46.21    49.33    52.70    56.40    60.34    64.52    69.22    
 74.58    80.38    86.67    93.59    101.05   109.24   118.55   127.85   137.39   147.60   
 157.91   168.77   179.29   190.20   200.98   211.63   222.32   232.49   242.40   252.01   
 261.05   269.45   277.17   284.66   290.94   296.35   300.65   303.87   306.02   307.05   
 306.82   305.26   302.49   298.60   293.72   287.81   281.20   273.67   265.22   256.15   
 215.82   
261168.52 260526.97 259637.12 257721.76 252505.99 245200.61 237989.24 230760.78 222179.39 211338.47 
 199276.30 187790.54 173463.06 159422.65 144281.88 129495.88 116014.60 102858.53 91135.71 80585.32 
 71727.70 64732.39 59099.49 54246.02 49927.20 46134.87 42841.49 39724.03 36810.87 34163.83 
 31684.12 29502.89 27431.86 25697.81 23963.75 22231.40 20650.39 19242.60 17847.36 16629.78 
 15528.09 14399.27 13326.00 12384.01 11365.48 10449.36 9638.85  8795.85  8048.07  7373.37  
 6760.48  6202.52  5691.82  5222.91  4811.68  4448.29  4104.83  3791.54  3492.96  3221.68  
 2959.85  2719.25  2478.99  2265.50  2056.56  1863.08  1689.49  1522.34  1369.45  1219.87  
 1089.20  962.60   846.28   739.36   641.90   551.13   467.63   390.50   324.52   273.74   
 222.95   172.33   135.71   106.12   76.00    39.52    10.42    5.25     3.82     3.35     
 3.03     2.78     2.58     2.61     2.55     2.16     1.59     1.69     1.75     1.75     
 1.72     1.73     1.78     1.83     1.91     1.95     1.96     2.03     2.17     2.17     
 2.27     2.44     2.49     2.61     2.76     2.94     3.19     3.35     3.50     3.67     
 3.85     4.07     4.31     4.59     4.89     5.22     5.59     6.01     6.48     6.99     
 7.52     8.12     8.78     9.44     10.15    10.95    11.82    12.82    13.92    15.09    
 16.39    17.84    19.49    21.28    23.21    25.38    27.72    30.21    32.87    35.75    
 38.72    41.94    45.33    48.94    52.76    56.91    61.25    65.86    70.77    75.85    
 81.06    86.46    92.07    98.06    104.06   110.13   116.34   122.91   131.16   138.48   
 146.55   155.04   163.54   172.99   182.53   192.55   202.67   212.85   222.87   232.54   
 215.82   
261168.52 261411.70 261373.92 260181.83 255801.85 248912.72 242581.30 235145.22 226905.17 217427.76 
 206232.70 193831.70 180864.57 166582.23 151415.33 136797.82 123373.68 111230.99 99100.93 88389.84 
 79341.27 72219.06 66466.41 61641.91 57412.43 53485.44 49961.79 46767.62 43757.32 40931.10 
 38391.98 36041.89 33685.58 31594.93 29601.80 27847.56 26301.66 24705.80 23228.73 21855.48 
 20534.76 19357.21 18085.89 16916.77 15867.56 14827.32 13810.96 12850.36 11941.81 11155.15 
 10369.41 9634.83  8989.93  8428.66  7936.09  7458.21  6987.69  6572.73  6197.27  5836.20  
 5487.32  5149.92  4832.97  4548.36  4259.64  3991.37  3724.09  3484.57  3242.06  3018.84  
 2808.66  2619.10  2433.43  2250.09  2078.42  1924.54  1780.88  1639.32  1505.82  1385.66  
 1276.07  1183.14  1090.34  997.55   913.97   837.83   767.78   704.49   648.97   601.91   
 553.50   507.71   465.29   426.62   389.97   356.46   325.78   300.05   276.72   252.36   
 229.51   210.66   193.44   177.53   162.16   147.74   133.29   120.44   107.60   96.71    
 86.46    77.96    69.61    61.35    52.95    44.53    36.92    31.09    21.26    7.77     
 4.22     3.88     3.91     4.08     4.31     4.53     4.84     5.17     5.52     5.98     
 6.65     7.40     8.15     9.47     10.54    10.56    10.51    10.93    11.72    12.58    
 13.58    14.72    15.97    18.23    19.47    20.97    22.79    24.66    26.73    29.09    
 31.67    34.14    35.87    38.93    42.32    45.82    49.56    53.53    57.77    62.16    
 66.85    71.85    77.08    82.64    88.42    94.51    100.65   107.07   113.85   122.24   
 129.42   137.70   146.71   156.16   165.99   176.31   187.14   198.12   208.79   219.79   
 215.82   
261168.52 262410.58 263484.76 263743.10 262067.20 257834.92 252042.00 245074.28 238106.60 231103.57 
 220738.71 209234.14 196154.41 181247.98 165753.61 150830.59 136629.85 122859.19 109923.05 98475.42 
 89031.51 81386.85 75392.71 70148.76 65320.55 61135.95 57412.48 53811.60 50517.76 47390.47 
 44595.05 42153.97 39785.67 37545.96 35459.46 33594.96 31727.06 29908.98 28281.33 26675.39 
 25222.30 23769.22 22317.75 21022.09 19705.49 18423.74 17239.59 16119.64 15060.59 14054.87 
 13108.01 12212.57 11382.90 10550.14 9820.50  9166.73  8573.95  8042.50  7566.40  7115.76  
 6711.83  6316.62  5944.41  5582.69  5255.68  4940.06  4644.20  4353.66  4070.80  3792.83  
 3519.85  3261.15  3021.25  2808.46  2595.67  2383.13  2195.18  2020.02  1859.50  1707.05  
 1567.91  1442.52  1331.72  1232.43  1137.31  1051.06  971.81   901.53   836.58   787.48   
 733.88   681.46   633.15   589.44   549.97   514.52   482.58   454.32   426.78   403.27   
 383.65   366.60   351.34   336.96   324.37   313.01   302.92   294.16   285.42   277.35   
 269.90   265.06   258.45   251.31   243.32   235.33   227.33   218.87   210.85   202.08   
 193.23   183.99   174.24   164.28   154.77   144.68   134.36   123.98   112.21   99.51    
 83.82    61.12    39.96    26.11    21.46    21.56    15.32    7.72     7.39     8.00     
 8.73     9.53     10.48    11.58    12.79    14.15    15.66    17.38    19.45    21.93    
 24.53    27.59    38.18    43.22    33.58    36.54    39.75    43.10    46.78    50.70    
 54.84    59.19    63.82    68.82    74.06    79.63    85.37    91.45    98.51    105.10   
 112.72   121.23   130.56   140.59   150.27   160.97   171.97   183.17   194.69   206.54   
 215.82   
261168.52 263335.85 265543.75 267034.86 267723.45 266416.71 262308.81 256304.42 248969.44 240508.17 
 231041.82 219695.79 206303.04 191539.21 176007.49 160111.24 145010.66 130868.76 117293.02 107123.18 
 96985.39 89551.28 83612.94 78196.61 73556.55 69169.59 65202.62 61456.17 57947.41 54595.97 
 51369.24 48425.91 45767.50 43111.63 40591.01 38310.28 36135.01 34044.17 32007.31 30068.58 
 28198.37 26285.12 24446.97 22677.11 21011.26 19541.24 18148.49 16839.93 15719.16 14655.58 
 13706.53 12811.36 11992.21 11238.67 10485.74 9813.55  9202.96  8665.10  8161.72  7680.82  
 7188.38  6716.53  6293.07  5909.57  5533.30  5162.33  4820.84  4484.05  4147.30  3836.76  
 3562.36  3306.40  3062.15  2821.74  2601.92  2395.59  2195.03  2008.23  1835.26  1677.74  
 1535.26  1408.25  1290.23  1194.61  1099.16  1003.70  926.76   851.52   791.53   745.39   
 693.94   643.27   600.12   562.60   529.85   501.96   477.36   456.74   438.81   422.85   
 408.91   396.98   386.16   376.77   367.27   358.25   350.60   343.37   336.49   329.09   
 321.65   314.81   308.94   302.90   296.38   290.37   285.24   279.79   274.31   269.67   
 264.89   260.86   256.87   251.80   245.99   240.03   234.21   228.51   222.06   215.88   
 208.14   198.66   189.98   181.18   172.34   162.93   153.73   143.10   131.85   118.23   
 104.59   85.07    36.07    18.30    15.74    15.14    13.83    14.35    16.13    18.08    
 20.24    22.53    25.05    27.77    30.54    33.43    36.80    40.27    44.37    55.80    
 63.85    54.46    58.72    63.55    68.70    74.17    79.76    85.67    91.82    98.33    
