IESNA:LM-63-2002
[TEST] 1
[TESTLAB] AOK
[TESTDATE] 2022-07-02
[ISSUEDATE] 2022-07-02 15:27:18
[NEARFIELD] 
[LAMPPOSITION] 0,0
[OTHER] EVERFINE GO-2000A_V1 SYSTEM
[MANUFAC] AOK
[LUMCAT] A
[LUMINAIRE] AOK-800WiSF-HV-S35-00-5070-2030D-P
[LAMPCAT] B
[LAMP] 3535
[BALLAST] E
[BALLASTCAT] F
[OTHER] 
[OTHER] Gamma(deg)    Fz(lm)      Ft(lm)     %Lum    %Lamp
[OTHER]   0- 10     32563.97    32563.97    30.87    30.87
[OTHER]  10- 20     37748.16    70312.13    66.65    66.65
[OTHER]  20- 30     15913.01    86225.14    81.73    81.73
[OTHER]  30- 40      6994.56    93219.70    88.36    88.36
[OTHER]  40- 50      4194.15    97413.85    92.34    92.34
[OTHER]  50- 60      3192.92   100606.77    95.36    95.36
[OTHER]  60- 70      2165.73   102772.51    97.42    97.42
[OTHER]  70- 80      1174.19   103946.69    98.53    98.53
[OTHER]  80- 90       548.03   104494.72    99.05    99.05
[OTHER]  90-100       297.74   104792.46    99.33    99.33
[OTHER] 100-110       199.63   104992.09    99.52    99.52
[OTHER] 110-120       145.63   105137.71    99.66    99.66
[OTHER] 120-130       102.28   105239.99    99.75    99.75
[OTHER] 130-140        67.17   105307.16    99.82    99.82
[OTHER] 140-150        50.38   105357.54    99.87    99.87
[OTHER] 150-160        58.69   105416.23    99.92    99.92
[OTHER] 160-170        60.33   105476.55    99.98    99.98
[OTHER] 170-180        22.50   105499.06   100.00   100.00
[OTHER] 
TILT=NONE
1 1.055e+005 1 181 25 1 2 0.150 0.200 0.000
1.000 1 800.582
0.0    1.0    2.0    3.0    4.0    5.0    6.0    7.0    8.0    9.0    
 10.0   11.0   12.0   13.0   14.0   15.0   16.0   17.0   18.0   19.0   
 20.0   21.0   22.0   23.0   24.0   25.0   26.0   27.0   28.0   29.0   
 30.0   31.0   32.0   33.0   34.0   35.0   36.0   37.0   38.0   39.0   
 40.0   41.0   42.0   43.0   44.0   45.0   46.0   47.0   48.0   49.0   
 50.0   51.0   52.0   53.0   54.0   55.0   56.0   57.0   58.0   59.0   
 60.0   61.0   62.0   63.0   64.0   65.0   66.0   67.0   68.0   69.0   
 70.0   71.0   72.0   73.0   74.0   75.0   76.0   77.0   78.0   79.0   
 80.0   81.0   82.0   83.0   84.0   85.0   86.0   87.0   88.0   89.0   
 90.0   91.0   92.0   93.0   94.0   95.0   96.0   97.0   98.0   99.0   
 100.0  101.0  102.0  103.0  104.0  105.0  106.0  107.0  108.0  109.0  
 110.0  111.0  112.0  113.0  114.0  115.0  116.0  117.0  118.0  119.0  
 120.0  121.0  122.0  123.0  124.0  125.0  126.0  127.0  128.0  129.0  
 130.0  131.0  132.0  133.0  134.0  135.0  136.0  137.0  138.0  139.0  
 140.0  141.0  142.0  143.0  144.0  145.0  146.0  147.0  148.0  149.0  
 150.0  151.0  152.0  153.0  154.0  155.0  156.0  157.0  158.0  159.0  
 160.0  161.0  162.0  163.0  164.0  165.0  166.0  167.0  168.0  169.0  
 170.0  171.0  172.0  173.0  174.0  175.0  176.0  177.0  178.0  179.0  
 180.0  
0.0    15.0   30.0   45.0   60.0   75.0   90.0   105.0  120.0  135.0  
 150.0  165.0  180.0  195.0  210.0  225.0  240.0  255.0  270.0  285.0  
 300.0  315.0  330.0  345.0  360.0  
444161.03 443827.19 438814.01 428346.17 385503.85 339885.35 297897.79 243000.87 196254.05 147441.46 
 117267.14 87310.61 57354.10 49448.40 43722.87 39394.04 35869.97 27124.34 22848.84 18090.78 
 12078.20 7778.02  3498.11  1458.08  972.43   503.58   34.73    22.57    18.92    17.60    
 16.70    15.24    14.23    13.20    12.17    10.94    10.01    9.17     8.71     8.58     
 8.42     8.22     8.06     7.82     7.30     6.92     6.66     6.27     5.82     5.62     
 5.30     5.04     4.86     4.75     4.62     4.49     4.34     4.27     4.23     4.21     
 4.18     4.16     4.13     4.13     4.13     4.13     4.11     4.09     4.08     4.06     
 4.04     4.01     3.99     3.96     3.92     3.89     3.87     3.84     3.81     3.78     
 3.79     3.79     3.80     3.80     3.81     3.81     3.85     3.90     3.98     4.07     
 4.17     4.31     4.43     4.58     4.74     4.92     5.09     5.29     5.49     5.70     
 5.92     6.15     6.40     6.65     6.93     7.22     7.50     7.80     8.11     8.44     
 8.77     9.12     9.49     9.86     10.26    10.67    11.11    11.55    12.02    12.51    
 13.01    13.55    14.11    14.69    15.29    15.92    16.62    17.35    18.13    18.97    
 19.88    20.89    22.01    23.30    24.81    26.58    28.72    31.28    34.25    37.64    
 41.36    45.45    50.06    55.24    60.91    67.05    73.78    81.35    90.30    101.02   
 113.30   127.08   142.23   159.36   178.51   198.47   218.88   240.44   262.02   283.12   
 302.87   321.45   339.11   354.70   366.88   375.91   381.43   383.39   381.91   377.20   
 369.97   361.07   350.74   339.22   326.75   312.94   297.52   281.27   263.72   244.56   
 225.39   
444161.03 444800.39 440680.13 431654.04 405872.41 355279.89 315843.73 267041.36 218238.98 169498.49 
 128807.98 96463.48 63630.19 52597.40 45529.00 40194.68 36117.07 32614.11 26344.22 20092.55 
 16277.87 10833.49 6347.30  4386.17  2425.04  479.80   314.37   150.40   142.23   100.16   
 77.46    92.79    61.07    35.65    26.17    21.68    19.16    17.56    16.47    15.51    
 14.98    14.10    13.12    12.20    11.35    10.45    9.47     8.35     7.64     7.07     
 6.59     6.30     6.07     5.81     5.52     5.30     5.39     5.59     5.63     5.59     
 5.48     5.32     5.17     5.01     4.86     4.73     4.59     4.44     4.30     4.19     
 4.06     3.94     3.88     3.83     3.75     3.68     3.60     3.54     3.46     3.45     
 3.44     3.43     3.43     3.42     3.46     3.50     3.54     3.60     3.69     3.79     
 3.91     4.05     4.19     4.35     4.53     4.72     4.88     5.09     5.30     5.54     
 5.76     6.01     6.27     6.54     6.83     7.12     7.42     7.72     8.05     8.38     
 8.70     9.05     9.43     9.80     10.20    10.61    11.05    11.50    11.96    12.45    
 12.96    13.50    14.07    14.64    15.24    15.86    16.55    17.27    18.03    18.86    
 19.76    20.78    21.92    23.29    24.92    26.88    29.23    32.02    35.12    38.67    
 42.73    47.12    51.94    57.18    62.98    69.53    76.74    84.98    94.25    105.16   
 118.58   132.02   147.00   164.06   182.25   201.53   221.50   241.48   262.01   281.93   
 301.11   319.50   336.23   351.02   362.11   370.30   374.90   376.14   373.98   368.99   
 361.87   352.87   342.79   331.49   319.18   305.69   290.81   274.84   257.61   239.50   
 225.39   
444161.03 444616.66 440935.21 433324.54 421469.62 382628.72 338147.68 298861.47 253307.80 208468.86 
 164866.96 128646.78 103864.18 79208.42 54552.65 46509.19 40557.20 35664.05 31657.94 28180.82 
 21023.21 17228.23 13148.68 10161.95 7187.53  4213.12  2322.36  1022.96  703.74   397.00   
 240.91   200.99   165.00   137.53   110.16   82.78    65.43    50.46    43.43    37.05    
 33.55    29.60    27.07    24.67    22.61    20.09    18.10    16.79    15.27    13.43    
 11.13    10.41    9.71     8.98     8.17     7.70     7.61     7.59     7.49     7.24     
 6.90     6.58     6.34     6.15     5.97     5.81     5.64     5.50     5.35     5.19     
 5.00     4.81     4.63     4.45     4.27     4.08     3.90     3.74     3.59     3.47     
 3.36     3.30     3.27     3.29     3.35     3.43     3.51     3.61     3.72     3.84     
 3.99     4.14     4.29     4.46     4.66     4.86     5.07     5.30     5.53     5.79     
 6.05     6.32     6.60     6.89     7.19     7.49     7.80     8.13     8.47     8.83     
 9.19     9.57     9.96     10.37    10.80    11.24    11.67    12.12    12.60    13.09    
 13.58    14.10    14.66    15.26    15.87    16.54    17.29    18.08    18.99    20.01    
 21.24    22.67    24.33    26.26    28.45    30.98    33.87    37.13    40.77    44.69    
 48.95    53.59    58.80    64.78    71.55    78.99    87.24    96.41    106.62   118.62   
 131.93   146.17   161.23   176.83   193.62   211.73   229.40   248.67   267.96   286.27   
 303.46   318.90   332.99   344.29   353.02   358.82   361.79   361.99   359.62   355.06   
 348.61   340.98   332.33   322.03   310.42   297.55   283.10   267.69   252.09   236.50   
 225.39   
444161.03 444853.32 442019.37 436282.04 426116.16 409950.33 377376.28 337453.20 305580.02 265543.73 
 225507.45 185570.54 157626.43 123431.84 102349.14 81192.71 61567.15 47175.90 39681.68 34153.26 
 29375.88 25893.76 22418.28 19745.35 15962.86 12381.84 9438.57  7420.47  5532.92  3869.05  
 2839.95  1812.77  1041.31  634.28   437.77   342.97   248.17   153.97   125.64   103.40   
 84.12    71.26    61.79    52.40    45.75    39.64    35.42    31.51    28.05    25.63    
 23.63    21.90    20.54    18.82    16.33    12.14    10.73    10.43    10.13    9.78     
 9.36     8.97     8.63     8.33     8.04     7.73     7.46     7.23     6.99     6.72     
 6.47     6.21     5.94     5.67     5.37     5.05     4.71     4.36     4.04     3.75     
 3.49     3.28     3.15     3.16     3.23     3.31     3.41     3.53     3.65     3.79     
 3.94     4.10     4.27     4.45     4.66     4.88     5.12     5.36     5.61     5.87     
 6.14     6.43     6.73     7.06     7.39     7.73     8.07     8.42     8.78     9.15     
 9.51     9.87     10.27    10.67    11.09    11.54    12.01    12.50    12.99    13.50    
 14.04    14.64    15.30    15.99    16.76    17.63    18.63    19.76    21.01    22.43    
 24.02    25.78    27.77    29.95    32.34    35.04    38.10    41.53    45.25    49.46    
 54.32    59.70    65.79    72.58    80.27    88.83    98.19    108.57   120.62   132.68   
 146.04   160.18   174.67   190.34   206.27   222.64   239.13   254.98   270.85   285.72   
 299.36   311.73   322.44   331.12   337.71   342.23   344.54   344.92   343.46   340.30   
 335.47   329.16   321.35   312.06   301.46   289.50   276.24   262.88   248.92   235.44   
 225.39   
444161.03 443866.02 441084.04 435416.79 424318.31 407450.20 393687.73 377389.29 354399.10 318520.51 
 281418.39 251206.52 220756.00 192405.57 164197.19 135950.37 115900.02 94455.39 72991.95 58037.50 
 45032.70 37186.21 30414.73 24884.01 22155.07 19432.95 17408.91 15397.65 13614.57 11937.35 
 10342.73 8749.11  7164.64  5606.00  4428.27  3438.56  2651.13  2103.57  1665.51  1304.81  
 1002.01  699.93   484.63   345.50   244.42   188.12   151.55   128.60   105.80   83.01    
 70.79    61.74    55.27    49.17    43.45    39.59    36.17    33.08    30.56    28.42    
 25.94    23.60    20.39    14.97    13.29    12.38    11.82    11.19    10.57    10.03    
 9.55     9.08     8.69     8.27     7.81     7.39     6.92     6.42     5.84     5.24     
 4.67     4.14     3.71     3.54     3.54     3.62     3.73     3.85     3.97     4.11     
 4.26     4.43     4.61     4.81     5.02     5.25     5.49     5.74     6.01     6.30     
 6.59     6.89     7.20     7.53     7.88     8.22     8.58     8.96     9.35     9.74     
 10.13    10.54    10.97    11.43    11.91    12.39    12.88    13.40    13.98    14.59    
 15.26    16.00    16.80    17.68    18.61    19.64    20.83    22.12    23.54    25.04    
 26.75    28.66    30.75    33.12    35.78    38.79    42.33    46.35    50.93    56.09    
 61.81    68.47    75.97    84.18    93.07    102.89   113.58   124.91   136.84   149.73   
 163.27   176.91   190.63   204.48   219.06   233.07   247.07   261.07   273.26   284.95   
 295.29   304.36   312.06   318.81   324.03   327.51   329.41   329.74   328.53   325.70   
 321.56   315.76   309.03   300.92   291.92   282.17   271.81   260.88   249.33   237.86   
 225.39   
444161.03 443026.07 440557.66 435732.77 425444.67 409386.43 396988.65 380840.30 363222.06 344547.88 
 324326.65 304825.07 280844.70 254433.19 228021.71 201600.17 174069.36 144481.83 117508.45 95817.47 
 79205.65 66145.31 55801.28 47278.52 41527.83 36725.30 32582.46 28436.03 25595.51 22758.44 
 20269.01 17719.20 15184.79 13223.97 11413.43 9828.30  8482.10  7355.49  6447.15  5703.55  
 5086.08  4559.37  4138.12  3762.62  3406.86  3047.43  2732.64  2417.91  2110.55  1813.41  
 1508.41  1213.05  944.60   728.61   564.56   452.30   368.87   301.30   251.01   200.84   
 165.29   135.63   112.48   95.07    81.61    69.51    59.00    49.85    43.43    38.12    
 33.32    29.61    26.41    22.80    16.79    15.20    14.05    12.64    11.41    10.25    
 9.06     7.54     5.71     4.08     3.23     3.25     3.33     3.41     3.51     3.60     
 3.72     3.86     4.00     4.16     4.36     4.56     4.79     5.03     5.29     5.54     
 5.80     6.08     6.38     6.70     7.03     7.39     7.75     8.15     8.56     8.98     
 9.42     9.87     10.36    10.86    11.36    11.87    12.42    12.99    13.59    14.22    
 14.95    15.76    16.70    17.72    18.79    20.05    21.51    23.07    24.77    26.56    
 28.59    30.78    33.21    35.85    38.83    42.22    46.21    50.69    55.60    61.00    
 67.06    74.11    82.05    90.85    100.42   110.86   122.56   134.27   146.49   159.10   
 172.27   185.31   198.10   211.22   223.92   236.26   248.25   259.54   270.52   280.67   
 290.03   298.25   305.64   312.15   317.56   321.70   324.45   325.79   325.83   324.37   
 321.65   317.66   312.87   306.47   299.11   290.78   281.32   271.06   260.64   249.87   
 225.39   
444161.03 441330.21 437895.76 433226.68 423848.63 408687.15 396173.12 381711.18 365429.71 347404.86 
 328790.02 310171.04 287604.17 263787.83 237358.93 210913.60 183116.41 156444.89 132540.96 112369.26 
 95698.10 81949.49 71149.17 61707.44 54227.14 47801.84 42884.93 38615.79 34971.53 31686.11 
 28531.19 25788.46 23045.73 20306.93 17932.28 15905.95 14131.10 12641.53 11464.60 10458.18 
 9656.54  8966.72  8408.53  7876.78  7395.21  6945.05  6560.08  6195.73  5857.30  5521.56  
 5178.31  4838.45  4484.09  4147.29  3842.69  3578.42  3318.78  3081.96  2854.93  2647.48  
 2440.28  2254.42  2074.35  1909.01  1748.82  1602.31  1459.36  1315.23  1181.48  1062.43  
 946.17   838.27   739.93   648.94   563.56   484.64   413.64   347.62   290.63   242.52   
 194.51   154.31   120.59   91.68    58.64    24.28    5.39     3.57     3.04     2.78     
 2.50     2.40     2.34     2.28     2.20     2.14     1.87     1.73     1.76     1.72     
 1.71     1.72     1.73     1.81     1.89     1.95     2.00     2.05     2.10     2.18     
 2.18     2.27     2.39     2.48     2.62     2.80     2.99     3.15     3.24     3.34     
 3.44     3.56     3.70     3.88     4.10     4.35     4.64     4.95     5.29     5.68     
 6.14     6.65     7.23     7.80     8.44     9.17     9.99     10.95    12.04    13.24    
 14.60    16.15    17.90    19.85    21.98    24.36    26.84    29.50    32.30    35.21    
 38.32    41.45    44.72    48.13    51.63    55.36    59.24    63.34    67.66    72.14    
 76.80    81.54    86.50    92.00    97.58    103.51   109.91   116.85   124.61   132.37   
 140.75   149.87   159.77   170.23   181.34   192.97   204.52   216.14   227.43   239.06   
 225.39   
444161.03 441026.00 437131.54 431848.92 422407.77 407720.44 394176.60 379658.91 363002.45 343486.30 
 321971.76 300084.54 276181.31 252261.21 226880.05 202514.34 178853.10 155684.40 133506.01 115929.04 
 98395.36 80861.68 69986.25 61653.23 55037.42 49773.10 45407.41 41623.36 38014.46 34596.32 
 31522.77 28460.36 25417.72 22706.44 20203.12 18115.73 16213.24 14517.42 13182.09 12145.08 
 11447.80 10753.81 10059.82 9550.95  9128.48  8743.14  8394.89  8066.14  7759.56  7445.94  
 7156.27  6887.15  6625.82  6343.79  6050.78  5755.67  5460.94  5170.22  4880.33  4604.84  
 4347.88  4118.10  3900.66  3698.52  3500.93  3311.76  3124.27  2946.38  2772.18  2601.21  
 2443.86  2296.22  2152.65  2014.71  1880.42  1759.74  1643.98  1532.66  1424.99  1323.73  
 1229.73  1146.59  1063.54  984.29   908.51   837.32   771.47   712.45   658.37   609.58   
 568.70   526.91   487.78   451.43   417.08   384.21   353.80   325.61   300.45   277.38   
 255.15   234.82   215.45   197.21   179.58   162.60   147.01   131.77   117.85   103.94   
 91.79    81.11    72.01    62.62    53.87    45.65    38.17    31.96    27.28    17.06    
 6.23     4.16     3.96     3.96     4.13     4.31     4.51     4.77     5.06     5.40     
 6.13     6.91     7.67     8.47     9.83     11.32    11.43    11.21    11.62    12.66    
 13.62    14.78    16.23    18.31    20.52    22.19    24.13    26.42    28.79    31.36    
 34.08    36.91    39.07    41.33    44.52    47.70    50.91    54.22    57.58    61.12    
 64.78    68.65    72.67    77.03    81.63    86.69    92.24    98.39    105.43   113.29   
 120.57   130.39   141.59   153.51   165.62   179.08   193.00   207.37   221.57   236.03   
 225.39   
444161.03 440887.09 436177.47 429590.30 420287.43 407167.69 390118.86 372687.35 352915.57 329198.52 
 301901.58 274426.04 248571.35 222747.80 199639.14 178309.11 157077.11 136166.61 115603.75 98342.04 
 84630.53 74078.52 65804.62 59326.66 54023.85 49524.78 45620.11 41876.73 38489.88 35075.55 
 31968.93 28998.51 26330.72 23662.94 21000.51 18819.79 16840.41 15136.12 13652.72 12543.85 
 11691.86 11066.14 10561.11 10141.17 9782.06  9449.34  9128.21  8846.02  8593.81  8353.20  
 8118.06  7874.56  7630.94  7377.32  7128.07  6866.80  6598.64  6320.54  6042.49  5769.57  
 5492.55  5205.66  4924.65  4668.56  4434.99  4203.59  3973.83  3748.93  3531.20  3314.39  
 3108.47  2914.70  2739.51  2564.32  2389.29  2226.35  2069.93  1922.51  1790.24  1663.85  
 1546.00  1436.39  1339.82  1252.31  1173.45  1098.49  1030.39  966.36   907.87   858.74   
 818.43   772.62   730.22   689.22   651.78   617.68   586.93   557.55   531.29   506.92   
 484.50   464.10   444.53   426.56   409.76   393.95   379.10   364.86   352.09   340.34   
 328.46   316.77   305.46   294.03   283.24   272.40   261.61   250.55   238.51   226.46   
 214.30   202.68   191.12   179.46   167.46   155.39   142.88   131.22   118.92   105.07   
 90.46    73.18    48.75    30.96    21.44    19.34    18.64    10.55    7.45     8.09     
 8.97     9.99     11.16    12.46    13.91    15.63    17.53    19.63    22.18    25.32    
 28.48    31.63    35.88    49.50    47.62    41.23    44.37    47.56    50.88    54.24    
 57.72    61.25    64.94    68.94    73.07    77.62    82.44    87.72    94.06    100.20   
 107.90   116.85   127.85   139.56   152.48   166.19   181.24   197.14   212.92   229.13   
 225.39   
444161.03 439897.87 433087.09 423852.09 411720.88 395786.94 375219.89 349532.86 318445.82 283884.60 
 250118.92 220219.40 194449.33 172022.76 151632.77 133505.26 118196.32 105859.86 93552.68 83671.81 
 75201.97 68416.62 62374.05 56975.35 51861.50 47112.18 42412.99 37888.01 33497.41 29155.30 
 25143.88 21674.31 18835.11 16725.42 15310.72 14378.14 13646.34 13002.75 12432.30 11892.27 
 11435.13 10978.81 10561.64 10164.37 9829.90  9526.69  9234.12  8974.76  8729.24  8463.06  
 8195.06  7933.48  7684.33  7449.25  7215.89  6976.16  6735.58  6494.59  6257.99  6005.46  
 5751.21  5504.01  5252.20  5008.72  4756.55  4503.50  4257.22  4016.98  3777.99  3545.80  
 3308.47  3086.67  2877.94  2679.50  2490.32  2318.37  2146.97  1973.59  1825.32  1688.44  
 1568.01  1456.10  1350.24  1253.08  1175.05  1097.21  1019.37  954.02   893.04   851.11   
 812.41   769.05   728.35   692.71   661.14   632.44   607.37   585.46   565.52   547.44   
 530.75   515.79   501.45   488.45   476.27   463.92   451.79   440.39   429.72   419.28   
 408.84   398.62   388.65   379.12   369.59   360.54   351.74   343.36   334.78   326.38   
 318.70   310.74   302.90   295.44   287.13   278.26   269.29   260.11   250.78   241.34   
 231.60   220.09   208.27   196.27   184.66   172.84   160.97   148.97   136.24   122.72   
 109.18   93.52    65.31    24.26    16.13    15.19    14.95    14.95    17.03    19.41    
 22.00    24.76    27.73    30.91    34.16    37.53    41.35    45.46    49.40    53.99    
 71.85    63.16    63.78    68.37    73.20    78.31    83.53    89.00    94.83    101.01   
