IESNA:LM-63-2002
[TEST] 1
[TESTLAB] AOK
[TESTDATE] 2022-05-11
[ISSUEDATE] 2022-05-12 08:04:30
[NEARFIELD] 
[LAMPPOSITION] 0,0
[OTHER] EVERFINE GO-2000A_V1 SYSTEM
[MANUFAC] AOK
[LUMCAT] A
[LUMINAIRE] AOK-600WiSF-HVY-S5-00-5070-3585D-P
[LAMPCAT] B
[LAMP] 5050
[BALLAST] E
[BALLASTCAT] F
[OTHER] 
[OTHER] Gamma(deg)    Fz(lm)      Ft(lm)     %Lum    %Lamp
[OTHER]   0- 10      6412.73     6412.73     7.83     7.83
[OTHER]  10- 20     13825.64    20238.37    24.71    24.71
[OTHER]  20- 30     16153.85    36392.22    44.44    44.44
[OTHER]  30- 40     15496.30    51888.52    63.37    63.37
[OTHER]  40- 50     12683.59    64572.10    78.85    78.85
[OTHER]  50- 60      9054.84    73626.95    89.91    89.91
[OTHER]  60- 70      4951.08    78578.03    95.96    95.96
[OTHER]  70- 80      1954.88    80532.91    98.35    98.35
[OTHER]  80- 90       581.27    81114.18    99.06    99.06
[OTHER]  90-100       218.37    81332.55    99.32    99.32
[OTHER] 100-110       139.13    81471.68    99.49    99.49
[OTHER] 110-120       113.82    81585.50    99.63    99.63
[OTHER] 120-130        94.00    81679.50    99.75    99.75
[OTHER] 130-140        74.37    81753.87    99.84    99.84
[OTHER] 140-150        59.39    81813.27    99.91    99.91
[OTHER] 150-160        42.94    81856.21    99.96    99.96
[OTHER] 160-170        23.36    81879.57    99.99    99.99
[OTHER] 170-180         8.13    81887.70   100.00   100.00
[OTHER] 
TILT=NONE
1 81888 1 181 25 1 2 0.150 0.200 0.000
1.000 1 600.352
0.0    1.0    2.0    3.0    4.0    5.0    6.0    7.0    8.0    9.0    
 10.0   11.0   12.0   13.0   14.0   15.0   16.0   17.0   18.0   19.0   
 20.0   21.0   22.0   23.0   24.0   25.0   26.0   27.0   28.0   29.0   
 30.0   31.0   32.0   33.0   34.0   35.0   36.0   37.0   38.0   39.0   
 40.0   41.0   42.0   43.0   44.0   45.0   46.0   47.0   48.0   49.0   
 50.0   51.0   52.0   53.0   54.0   55.0   56.0   57.0   58.0   59.0   
 60.0   61.0   62.0   63.0   64.0   65.0   66.0   67.0   68.0   69.0   
 70.0   71.0   72.0   73.0   74.0   75.0   76.0   77.0   78.0   79.0   
 80.0   81.0   82.0   83.0   84.0   85.0   86.0   87.0   88.0   89.0   
 90.0   91.0   92.0   93.0   94.0   95.0   96.0   97.0   98.0   99.0   
 100.0  101.0  102.0  103.0  104.0  105.0  106.0  107.0  108.0  109.0  
 110.0  111.0  112.0  113.0  114.0  115.0  116.0  117.0  118.0  119.0  
 120.0  121.0  122.0  123.0  124.0  125.0  126.0  127.0  128.0  129.0  
 130.0  131.0  132.0  133.0  134.0  135.0  136.0  137.0  138.0  139.0  
 140.0  141.0  142.0  143.0  144.0  145.0  146.0  147.0  148.0  149.0  
 150.0  151.0  152.0  153.0  154.0  155.0  156.0  157.0  158.0  159.0  
 160.0  161.0  162.0  163.0  164.0  165.0  166.0  167.0  168.0  169.0  
 170.0  171.0  172.0  173.0  174.0  175.0  176.0  177.0  178.0  179.0  
 180.0  
0.0    15.0   30.0   45.0   60.0   75.0   90.0   105.0  120.0  135.0  
 150.0  165.0  180.0  195.0  210.0  225.0  240.0  255.0  270.0  285.0  
 300.0  315.0  330.0  345.0  360.0  
70119.99 66937.11 64883.48 63710.62 59789.27 51882.80 44984.32 38262.18 29370.07 24136.08 
 16382.90 10646.02 5751.29  865.71   150.11   93.78    43.86    24.43    17.51    14.62    
 12.73    11.44    10.38    9.54     8.69     7.93     7.24     6.74     6.21     5.80     
 5.56     5.31     5.14     4.97     4.84     4.70     4.66     4.68     4.77     4.79     
 4.82     4.88     4.90     4.84     4.73     4.64     4.55     4.46     4.41     4.29     
 4.20     4.10     4.03     4.00     3.96     3.88     3.84     3.80     3.76     3.70     
 3.67     3.64     3.62     3.56     3.52     3.49     3.49     3.46     3.44     3.41     
 3.37     3.35     3.33     3.33     3.33     3.34     3.34     3.34     3.34     3.38     
 3.41     3.49     3.56     3.64     3.72     3.84     3.97     4.11     4.28     4.48     
 4.69     4.94     5.22     5.52     5.85     6.21     6.62     7.06     7.54     8.04     
 8.59     9.20     9.85     10.54    11.31    12.14    12.98    13.85    14.74    15.68    
 16.66    17.69    18.73    19.81    20.93    22.07    23.22    24.39    25.61    26.86    
 28.16    29.51    30.96    32.45    34.03    35.69    37.47    39.37    41.31    43.32    
 45.36    47.45    49.67    51.98    54.33    56.70    59.07    61.53    64.04    66.61    
 69.21    71.96    74.84    77.81    80.91    84.05    87.28    90.76    94.22    97.63    
 101.21   104.89   108.61   112.27   115.84   119.13   122.14   124.91   127.36   129.50   
 131.37   132.91   134.15   134.88   135.11   134.72   133.68   131.98   129.66   126.79   
 123.34   119.50   115.44   111.08   106.71   102.11   97.56    93.05    88.51    83.71    
 77.90    
70119.99 67024.22 64534.95 63059.08 61882.58 54874.61 48562.30 41492.34 34449.80 27985.26 
 21520.73 15063.05 9447.79  5123.88  833.67   295.44   248.23   200.75   125.40   70.61    
 38.83    25.06    17.56    13.45    11.48    10.09    9.17     8.51     8.03     7.69     
 7.37     7.06     6.89     6.73     6.29     5.93     5.87     5.86     5.78     5.59     
 5.47     5.37     5.28     5.09     4.92     4.98     5.03     5.02     4.97     4.90     
 4.82     4.74     4.63     4.52     4.41     4.32     4.25     4.15     4.07     3.98     
 3.87     3.76     3.67     3.59     3.52     3.47     3.38     3.30     3.25     3.21     
 3.17     3.08     3.02     2.97     2.96     2.95     2.95     2.96     2.96     2.98     
 3.01     3.04     3.08     3.14     3.23     3.36     3.49     3.66     3.85     4.07     
 4.32     4.58     4.87     5.19     5.54     5.91     6.32     6.78     7.28     7.79     
 8.33     8.93     9.58     10.28    11.05    11.84    12.66    13.54    14.46    15.43    
 16.42    17.46    18.54    19.65    20.77    21.92    23.12    24.33    25.56    26.82    
 28.18    29.64    31.16    32.71    34.29    35.96    37.75    39.59    41.50    43.43    
 45.44    47.46    49.55    51.64    53.74    55.86    58.09    60.33    62.57    64.91    
 67.40    69.95    72.61    75.43    78.33    81.35    84.34    87.52    90.72    94.08    
 97.62    101.10   104.58   108.11   111.41   114.52   117.39   119.87   122.18   124.09   
 125.79   127.24   128.37   129.15   129.42   129.09   128.16   126.62   124.58   122.00   
 119.00   115.81   112.42   108.95   105.45   101.88   98.20    95.40    91.13    86.29    
 77.90    
70119.99 67344.08 64748.71 63200.48 62271.89 60165.28 53055.20 47906.25 41551.94 35342.35 
 28055.50 23585.19 16414.80 12110.69 7524.00  2933.94  2036.96  1177.56  318.15   243.04   
 206.51   159.41   122.85   102.90   83.13    70.88    60.84    49.85    49.27    45.67    
 37.84    32.40    29.30    27.94    24.63    21.81    18.29    15.51    13.22    11.78    
 10.70    9.79     9.07     8.38     7.85     7.40     7.07     6.79     6.52     6.25     
 6.02     5.82     5.61     5.39     5.20     5.02     4.86     4.74     4.60     4.47     
 4.32     4.21     4.10     4.00     3.89     3.79     3.70     3.63     3.55     3.48     
 3.42     3.35     3.30     3.25     3.20     3.16     3.12     3.09     3.07     3.06     
 3.06     3.06     3.07     3.15     3.26     3.41     3.59     3.80     4.03     4.29     
 4.58     4.90     5.25     5.63     6.06     6.52     7.01     7.56     8.18     8.85     
 9.57     10.33    11.13    11.98    12.88    13.80    14.76    15.75    16.80    17.89    
 19.00    20.15    21.34    22.54    23.77    25.06    26.37    27.72    29.15    30.60    
 32.05    33.58    35.20    36.81    38.44    40.07    41.76    43.51    45.25    47.03    
 48.83    50.63    52.53    54.51    56.54    58.62    60.80    63.06    65.44    67.92    
 70.45    73.12    75.87    78.72    81.59    84.55    87.57    90.65    93.78    96.93    
 100.10   103.15   106.04   108.78   111.43   113.81   115.94   117.84   119.53   121.16   
 122.56   123.64   124.33   124.63   124.51   123.97   123.00   121.62   119.94   117.97   
 115.74   113.39   110.92   109.72   107.23   104.26   101.18   97.94    94.45    90.66    
 77.90    
70119.99 67857.87 65724.63 63809.22 62582.35 61758.27 61194.41 57337.70 50991.81 46606.63 
 40922.03 36511.78 30197.13 25417.60 20638.06 15874.62 12842.12 8553.50  5982.53  3411.55  
 857.60   518.38   408.82   300.08   244.59   189.31   158.34   127.79   104.96   87.28    
 73.71    64.45    54.71    46.58    40.62    35.67    31.90    28.67    25.87    23.46    
 21.33    19.35    17.15    14.84    13.23    12.50    12.06    11.64    11.17    10.58    
 10.00    9.34     8.60     7.89     7.39     7.08     6.92     6.80     6.65     6.45     
 6.24     6.03     5.81     5.59     5.37     5.18     4.99     4.82     4.64     4.49     
 4.33     4.17     4.02     3.90     3.77     3.65     3.53     3.45     3.35     3.29     
 3.24     3.25     3.25     3.31     3.41     3.58     3.82     4.09     4.41     4.76     
 5.16     5.62     6.10     6.62     7.18     7.78     8.42     9.11     9.83     10.57    
 11.35    12.16    13.03    13.99    14.97    15.95    16.95    18.00    19.12    20.26    
 21.43    22.63    23.91    25.21    26.55    27.94    29.36    30.79    32.27    33.77    
 35.34    36.97    38.67    40.34    42.02    43.78    45.62    47.54    49.46    51.45    
 53.48    55.57    57.73    59.91    62.13    64.40    66.77    69.16    71.56    74.04    
 76.64    79.22    81.84    84.44    87.06    89.70    92.27    94.81    97.21    99.55    
 101.85   103.98   105.98   107.93   109.69   111.39   112.92   114.24   115.39   116.29   
 117.02   117.48   117.71   117.72   117.45   116.90   116.16   115.22   114.13   112.89   
 112.28   111.32   110.20   108.63   106.94   105.04   101.75   99.65    98.11    95.32    
 77.90    
70119.99 68522.58 67063.41 65670.61 64286.12 63206.25 61943.74 60720.78 59761.22 58900.14 
 55806.48 50932.90 46927.87 43813.94 39748.12 35981.18 32661.66 27894.51 23767.78 21656.98 
 18202.72 14427.15 12169.19 9831.65  7493.02  5154.39  2459.52  1101.17  787.62   487.26   
 362.29   265.34   194.41   152.25   126.89   106.64   86.44    75.08    68.75    58.07    
 50.57    44.96    40.49    35.12    32.15    29.11    26.99    24.98    22.28    20.30    
 18.51    16.91    15.23    13.23    11.77    11.10    10.63    10.23    9.83     9.44     
 8.99     8.59     8.24     7.93     7.63     7.34     7.08     6.82     6.57     6.36     
 6.15     5.94     5.75     5.55     5.36     5.17     4.97     4.79     4.61     4.46     
 4.32     4.21     4.14     4.11     4.13     4.30     4.58     4.94     5.31     5.73     
 6.18     6.66     7.19     7.77     8.40     9.07     9.79     10.57    11.38    12.23    
 13.15    14.10    15.11    16.16    17.26    18.47    19.71    20.97    22.26    23.59    
 25.00    26.47    27.99    29.51    31.10    32.77    34.50    36.24    38.00    39.85    
 41.77    43.70    45.65    47.63    49.71    51.82    53.95    56.11    58.34    60.57    
 62.78    65.01    67.25    69.52    71.79    74.05    76.31    78.58    80.84    83.05    
 85.23    87.39    89.52    91.62    93.65    95.68    97.62    99.42    101.11   102.71   
 104.24   105.61   106.84   107.97   109.00   109.89   110.65   111.25   111.74   112.10   
 112.39   112.48   112.52   112.49   112.38   112.22   111.96   111.65   111.28   110.70   
 110.11   109.48   109.07   108.56   107.66   106.41   105.45   104.39   103.01   101.51   
 77.90    
70119.99 69260.09 68526.04 67864.04 67201.03 66425.58 65385.58 64039.85 62814.87 61586.08 
 60297.45 59122.89 57972.01 56929.95 56180.03 55013.18 53872.94 52738.88 51455.58 49641.47 
 47113.65 44284.67 41312.03 38882.84 36980.17 34534.07 31979.12 29140.76 26804.82 24288.07 
 21771.32 19253.49 16600.08 14680.93 12983.80 11149.43 9371.92  7849.64  6448.04  5372.89  
 4315.42  3454.22  2690.80  1929.01  1375.42  931.87   659.13   467.93   343.48   283.91   
 224.35   165.07   135.44   103.75   84.22    72.58    63.23    50.85    43.81    38.33    
 33.55    30.10    26.98    24.80    22.62    20.44    18.27    16.08    14.13    13.04    
 12.56    11.97    11.07    10.18    9.45     8.91     8.36     7.75     7.31     6.83     
 6.23     5.80     5.35     4.93     4.53     4.21     4.24     4.50     4.82     5.17     
 5.56     6.01     6.49     7.00     7.55     8.15     8.78     9.47     10.21    11.00    
 11.81    12.70    13.67    14.69    15.75    16.85    17.98    19.20    20.49    21.83    
 23.22    24.68    26.19    27.77    29.36    31.02    32.73    34.46    36.21    38.06    
 39.96    41.95    43.98    45.96    48.00    50.06    52.18    54.33    56.49    58.67    
 60.84    63.00    65.17    67.33    69.45    71.57    73.70    75.79    77.82    79.85    
 81.89    83.87    85.79    87.62    89.39    91.08    92.74    94.28    95.81    97.36    
 98.77    100.09   101.29   102.40   103.51   104.66   105.61   106.49   107.32   108.07   
 108.78   109.42   109.99   110.52   110.96   111.40   111.76   113.33   113.59   113.77   
 113.85   113.78   113.61   113.33   112.65   112.02   111.40   110.62   109.62   108.60   
 77.90    
70119.99 70169.22 70275.79 70494.22 70695.26 70776.04 70508.78 69919.79 69494.92 68979.83 
 68380.23 67744.97 67145.57 66529.43 65851.13 65331.58 64703.19 64006.36 63274.47 62615.32 
 61858.34 61112.37 60272.79 59296.68 58288.12 57245.80 56393.40 55358.62 54131.05 52839.14 
 51518.87 50202.73 48856.70 47338.51 45828.01 44288.06 42624.68 41016.71 39356.18 37652.15 
 35988.02 34316.50 32652.71 31012.20 29300.97 27717.15 26067.37 24603.39 23139.95 21724.14 
 20494.69 19118.66 17758.41 16427.52 15158.76 13922.67 12817.28 11780.75 10766.57 9721.03  
 8803.36  7961.83  7145.30  6448.21  5803.45  5190.77  4628.92  4110.13  3630.32  3188.01  
 2793.69  2400.18  2073.34  1778.26  1496.73  1267.42  1045.01  864.78   707.43   575.96   
 464.35   373.62   308.17   242.72   177.54   133.35   94.05    69.19    45.66    25.22    
 11.19    5.71     4.86     4.44     4.20     4.00     2.99     2.92     2.95     3.01     
 3.08     3.16     3.25     3.36     3.48     3.62     3.78     3.96     4.16     4.37     
 4.60     4.84     5.11     5.40     5.70     6.02     6.35     6.71     7.09     7.49     
 7.90     8.33     8.76     9.23     9.73     10.25    10.77    11.31    11.84    12.40    
 12.98    13.57    14.16    14.78    15.43    16.07    16.76    17.48    18.20    18.94    
 19.72    20.50    21.31    22.16    23.02    23.96    24.89    25.91    27.00    28.16    
 29.38    30.63    31.92    33.32    34.75    36.25    37.94    39.81    41.82    43.97    
 46.19    48.53    50.96    53.49    56.04    58.69    61.37    64.93    68.43    71.23    
 73.96    76.66    79.38    81.91    84.35    86.67    88.79    90.63    92.18    93.59    
 77.90    
70119.99 71018.19 71992.71 73040.41 74064.50 75093.65 75811.81 76305.58 76728.77 77143.27 
 77513.41 77963.71 78346.21 78683.81 78924.30 79002.72 78979.16 78862.24 78740.39 78453.47 
 78096.55 77589.99 76876.68 75923.86 74823.97 73481.01 71926.46 70487.15 69068.94 67361.21 
 65859.95 64243.93 62574.48 60803.87 59000.14 57389.57 55619.36 53791.43 51976.05 50248.37 
 48545.71 46807.06 44991.58 43328.40 41783.41 40130.67 38412.53 36746.25 35056.20 33575.67 
 32088.66 30452.72 28988.35 27565.90 26172.01 24693.80 23271.24 21970.05 20778.69 19628.52 
 18341.58 17129.49 16051.45 15031.08 13970.99 12942.74 11983.25 11111.13 10239.77 9319.99  
 8446.81  7657.80  6898.49  6200.94  5537.87  4995.91  4474.68  3987.11  3521.47  3060.93  
 2693.17  2364.58  2064.09  1790.32  1573.51  1391.53  1199.27  1063.62  928.50   826.21   
 736.04   659.17   588.04   527.07   475.38   431.68   393.40   359.61   330.30   304.76   
 281.42   262.44   245.49   230.57   216.59   203.64   192.57   183.33   175.07   167.39   
 160.64   154.56   148.92   143.21   137.40   131.76   125.82   119.87   114.17   109.23   
 104.61   100.45   96.10    92.00    87.83    83.61    79.23    74.11    68.33    60.83    
 50.10    40.66    32.71    26.18    22.21    18.75    15.00    12.40    11.84    12.36    
 13.00    13.65    14.30    14.97    15.64    16.32    17.00    17.67    18.34    19.04    
 19.76    20.47    21.20    22.00    22.83    23.73    24.70    25.82    27.09    28.54    
 30.10    31.86    33.92    36.18    38.63    41.27    43.94    46.77    50.24    54.42    
 57.67    60.99    64.31    67.60    70.87    74.18    77.27    80.22    82.95    85.62    
 77.90    
70119.99 71834.04 73538.08 75424.31 77361.06 79140.35 80904.33 82728.50 84216.36 85521.45 
 86350.16 87186.17 87212.28 86295.26 85137.43 84087.38 82943.70 81726.64 80445.13 79165.89 
 77769.51 76319.18 74736.94 73275.25 71765.29 70268.26 68842.65 67315.97 65767.45 64084.09 
 62257.13 60486.06 58737.67 56844.75 55027.94 53158.11 51240.94 49418.00 47715.27 45948.79 
 44243.08 42563.05 40980.69 39515.95 38096.58 36767.31 35552.34 34450.40 33351.13 32133.99 
 30844.72 29592.04 28363.84 27159.44 25991.88 24797.33 23602.03 22340.39 21143.41 20019.33 
 18902.85 17843.21 16950.09 16071.24 15188.98 14298.77 13386.82 12471.41 11539.04 10627.16 
 9754.66  8926.61  8088.51  7297.30  6497.38  5718.57  4882.18  4226.58  3667.90  3175.05  
 2713.05  2252.37  1906.40  1659.65  1426.85  1255.01  1102.68  981.37   876.23   787.64   
 716.47   654.13   590.33   533.83   487.59   451.67   422.12   398.69   378.14   360.21   
 344.43   330.97   317.72   306.42   296.56   288.76   280.48   272.82   265.76   259.99   
 254.96   249.96   244.07   238.20   233.57   229.16   224.75   220.82   216.72   212.58   
 208.63   204.86   201.26   197.64   194.02   190.76   186.99   183.37   179.82   175.78   
 171.18   165.81   159.71   153.10   146.64   140.07   132.85   125.47   118.75   112.10   
 104.59   97.10    90.43    82.93    76.88    70.45    66.55    63.32    50.83    29.24    
 18.39    14.61    13.69    14.40    15.20    16.01    16.86    17.74    18.69    19.80    
 21.00    22.30    23.72    25.34    27.16    29.20    31.45    34.01    36.74    39.74    
 42.98    47.92    51.52    55.28    59.24    63.30    67.34    71.36    75.46    79.55    
 77.90    
70119.99 72543.21 74983.85 77521.50 80080.08 82821.15 85462.24 87445.58 89019.58 88868.48 
 87790.42 86776.88 85622.76 84544.13 83312.75 82068.05 80621.27 79229.47 77894.63 76125.11 
 73904.06 71537.77 68996.81 66652.00 64292.72 62163.37 60205.38 58447.30 56693.99 55279.11 
 54173.79 53216.48 52232.29 51223.65 50206.73 49250.27 48221.66 47148.06 45823.37 44464.99 
 43045.87 41634.22 40299.22 38928.65 37473.07 35972.38 34390.62 32836.43 31427.79 30113.14 
 28810.82 27492.96 26372.38 25362.51 24321.41 23191.30 22088.65 20925.72 19814.74 18696.12 
 17553.21 16441.42 15334.89 14264.67 13106.14 11999.17 10919.10 9839.26  8732.22  7725.16  
 6815.90  6090.74  5480.00  4905.60  4334.41  3831.88  3324.69  2875.49  2523.29  2225.09  
 1953.52  1685.44  1489.41  1311.20  1178.11  1045.47  912.83   815.14   732.99   666.66   
 613.31   562.50   510.69   467.51   434.40   401.29   378.19   361.30   347.73   336.21   
 325.11   315.46   307.81   301.05   295.01   289.15   284.44   279.17   274.37   269.48   
 264.99   260.73   257.22   252.83   248.39   244.35   240.61   236.98   233.08   229.43   
 226.19   222.60   218.56   213.68   208.40   203.12   197.84   192.77   188.08   183.33   
 179.10   175.54   172.70   170.12   167.02   163.86   161.24   158.97   156.49   154.05   
 151.22   148.29   145.75   143.13   140.16   136.88   130.60   124.70   118.80   113.15   
 107.84   99.34    89.02    84.81    82.91    79.37    66.33    34.10    22.32    19.73    
 17.05    16.66    17.90    19.38    21.02    22.72    24.54    26.51    28.74    31.29    
 34.17    37.37    40.83    44.46    48.32    53.85    58.27    62.97    67.85    72.99    
 77.90    
70119.99 73079.44 76043.02 79018.91 82352.80 85632.74 88115.14 89272.50 88502.77 87592.63 
