IESNA:LM-63-2002
[TEST] 1
[TESTLAB] AOK
[TESTDATE] 2022-05-16
[ISSUEDATE] 2022-05-16 08:45:10
[NEARFIELD] 
[LAMPPOSITION] 0,0
[OTHER] EVERFINE GO-2000A_V1 SYSTEM
[MANUFAC] AOK
[LUMCAT] A
[LUMINAIRE] AOK-400WiSF-HVY-S5-00-5070-3585D-P
[LAMPCAT] B
[LAMP] 5050
[BALLAST] E
[BALLASTCAT] F
[OTHER] 
[OTHER] Gamma(deg)    Fz(lm)      Ft(lm)     %Lum    %Lamp
[OTHER]   0- 10      4317.83     4317.83     7.95     7.95
[OTHER]  10- 20      9082.43    13400.26    24.69    24.69
[OTHER]  20- 30     10434.29    23834.55    43.91    43.91
[OTHER]  30- 40     10263.97    34098.53    62.82    62.82
[OTHER]  40- 50      8454.88    42553.41    78.39    78.39
[OTHER]  50- 60      6004.81    48558.21    89.45    89.45
[OTHER]  60- 70      3379.16    51937.37    95.68    95.68
[OTHER]  70- 80      1392.58    53329.95    98.25    98.25
[OTHER]  80- 90       440.34    53770.29    99.06    99.06
[OTHER]  90-100       176.21    53946.50    99.38    99.38
[OTHER] 100-110        94.45    54040.95    99.56    99.56
[OTHER] 110-120        68.45    54109.40    99.68    99.68
[OTHER] 120-130        53.32    54162.72    99.78    99.78
[OTHER] 130-140        41.77    54204.48    99.86    99.86
[OTHER] 140-150        32.69    54237.18    99.92    99.92
[OTHER] 150-160        24.68    54261.86    99.96    99.96
[OTHER] 160-170        15.15    54277.01    99.99    99.99
[OTHER] 170-180         5.33    54282.34   100.00   100.00
[OTHER] 
TILT=NONE
1 54282 1 181 25 1 2 0.150 0.200 0.000
1.000 1 402.027
0.0    1.0    2.0    3.0    4.0    5.0    6.0    7.0    8.0    9.0    
 10.0   11.0   12.0   13.0   14.0   15.0   16.0   17.0   18.0   19.0   
 20.0   21.0   22.0   23.0   24.0   25.0   26.0   27.0   28.0   29.0   
 30.0   31.0   32.0   33.0   34.0   35.0   36.0   37.0   38.0   39.0   
 40.0   41.0   42.0   43.0   44.0   45.0   46.0   47.0   48.0   49.0   
 50.0   51.0   52.0   53.0   54.0   55.0   56.0   57.0   58.0   59.0   
 60.0   61.0   62.0   63.0   64.0   65.0   66.0   67.0   68.0   69.0   
 70.0   71.0   72.0   73.0   74.0   75.0   76.0   77.0   78.0   79.0   
 80.0   81.0   82.0   83.0   84.0   85.0   86.0   87.0   88.0   89.0   
 90.0   91.0   92.0   93.0   94.0   95.0   96.0   97.0   98.0   99.0   
 100.0  101.0  102.0  103.0  104.0  105.0  106.0  107.0  108.0  109.0  
 110.0  111.0  112.0  113.0  114.0  115.0  116.0  117.0  118.0  119.0  
 120.0  121.0  122.0  123.0  124.0  125.0  126.0  127.0  128.0  129.0  
 130.0  131.0  132.0  133.0  134.0  135.0  136.0  137.0  138.0  139.0  
 140.0  141.0  142.0  143.0  144.0  145.0  146.0  147.0  148.0  149.0  
 150.0  151.0  152.0  153.0  154.0  155.0  156.0  157.0  158.0  159.0  
 160.0  161.0  162.0  163.0  164.0  165.0  166.0  167.0  168.0  169.0  
 170.0  171.0  172.0  173.0  174.0  175.0  176.0  177.0  178.0  179.0  
 180.0  
0.0    15.0   30.0   45.0   60.0   75.0   90.0   105.0  120.0  135.0  
 150.0  165.0  180.0  195.0  210.0  225.0  240.0  255.0  270.0  285.0  
 300.0  315.0  330.0  345.0  360.0  
47774.90 45305.85 43994.57 43195.61 39648.68 33589.79 29246.73 24949.48 19262.51 15792.71 
 11948.64 8099.89  4251.14  2186.21  140.77   78.52    36.95    26.63    20.72    17.02    
 14.80    12.88    11.28    10.41    9.69     9.07     8.41     7.83     7.36     7.07     
 7.04     6.85     6.42     5.81     5.27     5.09     4.96     4.94     4.72     4.69     
 4.65     4.56     4.31     4.20     4.16     4.16     4.16     4.13     4.03     3.90     
 3.81     3.74     3.68     3.58     3.52     3.43     3.29     3.20     3.14     3.04     
 2.98     2.97     2.94     2.88     2.80     2.73     2.65     2.58     2.52     2.48     
 2.45     2.42     2.40     2.37     2.35     2.34     2.34     2.34     2.36     2.41     
 2.47     2.54     2.61     2.71     2.87     3.05     3.18     3.31     3.44     3.57     
 3.72     3.89     4.06     4.25     4.43     4.62     4.84     5.08     5.37     5.70     
 6.07     6.48     6.93     7.41     7.91     8.45     9.03     9.62     10.26    10.91    
 11.58    12.29    13.01    13.74    14.51    15.29    16.10    16.92    17.78    18.70    
 19.66    20.65    21.74    22.88    24.06    25.33    26.68    28.07    29.48    30.91    
 32.38    33.90    35.44    36.99    38.51    40.03    41.58    43.11    44.62    46.12    
 47.63    49.20    50.87    52.62    54.44    56.35    58.34    60.35    62.46    64.72    
 67.09    69.51    71.93    74.32    76.66    78.98    81.12    83.07    84.85    86.44    
 87.76    88.88    89.72    90.18    90.28    89.93    89.18    87.95    86.32    84.28    
 81.96    79.31    76.50    73.53    70.47    67.31    64.20    61.10    57.95    54.53    
 50.80    
47774.90 45390.91 43936.29 43064.23 42201.13 35146.38 31200.59 26956.71 22712.84 18463.13 
 13476.83 10401.72 6978.36  3734.36  517.28   295.02   219.51   144.45   116.12   109.64   
 117.42   87.04    67.77    73.85    74.02    62.30    47.02    40.14    35.24    26.11    
 19.28    16.10    14.12    12.50    11.01    9.48     8.74     8.60     8.26     8.05     
 7.86     7.53     7.29     6.93     6.53     6.11     5.81     5.53     5.24     4.95     
 4.69     4.44     4.17     3.93     3.70     3.48     3.26     3.09     2.95     2.82     
 2.70     2.61     2.52     2.42     2.34     2.28     2.23     2.21     2.17     2.13     
 2.10     2.05     2.02     2.02     2.02     2.03     2.03     2.03     2.05     2.09     
 2.14     2.20     2.28     2.37     2.47     2.57     2.70     2.81     2.94     3.10     
 3.27     3.46     3.64     3.85     4.09     4.36     4.64     4.95     5.29     5.67     
 6.09     6.54     7.03     7.54     8.08     8.63     9.20     9.80     10.43    11.08    
 11.75    12.45    13.20    13.96    14.73    15.53    16.38    17.24    18.12    19.10    
 20.11    21.20    22.34    23.52    24.72    25.99    27.33    28.72    30.10    31.50    
 32.93    34.36    35.80    37.21    38.60    39.96    41.34    42.72    44.06    45.47    
 46.97    48.52    50.14    51.88    53.66    55.50    57.41    59.42    61.52    63.73    
 66.05    68.43    70.73    73.08    75.35    77.45    79.40    81.14    82.71    84.06    
 85.22    86.20    86.89    87.26    87.25    86.81    85.99    84.74    83.11    81.19    
 79.08    76.77    74.42    72.00    69.49    66.93    64.25    61.48    58.44    55.33    
 50.80    
47774.90 45700.86 44257.89 43442.01 42915.42 39338.16 33761.48 30268.00 26530.26 21083.85 
 17699.37 13758.68 10791.53 7835.32  4879.11  1047.09  713.59   415.78   276.63   240.24   
 197.08   157.41   150.89   152.10   131.80   111.27   90.73    78.84    81.03    71.40    
 69.68    58.02    53.82    52.24    45.91    46.45    36.31    33.78    35.67    33.13    
 31.14    30.86    34.44    32.19    29.50    28.79    27.81    26.04    22.40    22.00    
 19.64    16.96    12.59    10.52    9.60     9.19     8.50     7.75     6.94     6.06     
 5.21     4.64     4.23     3.96     3.65     3.27     2.92     2.63     2.43     2.28     
 2.17     2.10     2.06     2.02     2.00     1.99     1.98     1.97     1.97     1.97     
 2.01     2.07     2.15     2.26     2.38     2.52     2.67     2.83     3.03     3.24     
 3.46     3.72     4.01     4.33     4.65     5.04     5.45     5.88     6.34     6.81     
 7.30     7.82     8.36     8.92     9.52     10.18    10.85    11.53    12.23    12.95    
 13.73    14.56    15.40    16.26    17.15    18.10    19.08    20.09    21.13    22.21    
 23.35    24.52    25.67    26.85    28.05    29.23    30.42    31.63    32.82    34.02    
 35.21    36.42    37.66    38.93    40.21    41.54    42.94    44.43    45.97    47.55    
 49.19    50.89    52.70    54.57    56.47    58.46    60.53    62.62    64.72    66.88    
 69.05    71.11    73.09    74.91    76.68    78.28    79.74    81.05    82.27    83.33    
 84.12    84.66    84.92    84.89    84.56    83.93    82.98    81.78    80.40    78.86    
 77.15    75.33    73.44    71.43    69.34    67.27    65.17    62.98    60.61    58.25    
 50.80    
47774.90 46216.34 44686.96 43821.39 43192.26 42456.45 40694.53 35051.55 31673.96 28503.22 
 25051.69 21597.70 17862.78 16150.80 11949.83 9771.55  7234.61  5835.92  3374.88  930.08   
 668.53   488.99   387.92   321.51   255.09   188.97   155.90   118.19   93.36    80.35    
 70.87    62.78    57.65    53.21    49.72    46.26    43.33    39.96    36.92    34.70    
 32.17    29.74    26.84    24.72    22.31    21.31    20.56    20.00    19.13    18.37    
 17.43    16.35    15.17    13.73    12.48    11.54    10.79    10.09    9.39     8.73     
 8.10     7.47     6.86     6.37     5.93     5.56     5.20     4.83     4.45     4.06     
 3.70     3.37     3.08     2.84     2.65     2.48     2.33     2.22     2.17     2.17     
 2.16     2.20     2.27     2.39     2.54     2.73     2.93     3.16     3.42     3.70     
 4.02     4.36     4.71     5.11     5.52     5.97     6.45     6.94     7.44     7.98     
 8.53     9.09     9.69     10.34    11.02    11.72    12.46    13.23    14.02    14.82    
 15.69    16.58    17.50    18.43    19.39    20.40    21.43    22.48    23.50    24.54    
 25.62    26.75    27.90    29.06    30.22    31.42    32.66    33.93    35.24    36.58    
 37.94    39.36    40.81    42.29    43.79    45.34    46.96    48.62    50.23    51.93    
 53.73    55.48    57.25    59.04    60.80    62.58    64.33    66.06    67.68    69.28    
 70.82    72.27    73.61    74.93    76.14    77.25    78.20    78.98    79.64    80.11    
 80.43    80.59    80.53    80.26    79.83    79.25    78.57    77.75    76.83    75.79    
 74.70    73.51    72.25    70.91    69.55    68.14    66.63    65.11    63.41    61.71    
 50.80    
47774.90 46746.05 45705.97 44704.47 43889.16 43004.62 41769.42 41167.09 40317.71 37308.84 
 33501.20 30697.51 28354.01 26023.25 24052.42 21504.89 18363.72 15849.02 14327.27 12037.43 
 10184.28 8336.48  6594.14  5134.88  3662.71  1663.61  1290.91  935.32   579.74   429.40   
 326.37   244.85   200.63   171.77   149.88   129.13   113.61   98.15    85.14    74.05    
 64.82    56.32    49.36    43.55    38.90    34.67    30.09    27.05    24.34    21.74    
 19.82    18.23    16.21    14.15    12.85    11.96    11.36    10.74    10.14    9.54     
 8.99     8.45     7.95     7.49     7.07     6.68     6.34     6.04     5.76     5.52     
 5.31     5.10     4.86     4.59     4.34     4.10     3.86     3.62     3.39     3.15     
 2.94     2.77     2.70     2.74     2.92     3.13     3.36     3.62     3.92     4.23     
 4.57     4.94     5.35     5.78     6.23     6.71     7.19     7.75     8.35     8.97     
 9.64     10.35    11.09    11.85    12.66    13.52    14.41    15.32    16.24    17.18    
 18.15    19.19    20.23    21.28    22.41    23.56    24.74    25.92    27.19    28.46    
 29.75    31.07    32.46    33.84    35.27    36.66    38.11    39.63    41.14    42.64    
 44.14    45.67    47.16    48.71    50.23    51.76    53.29    54.84    56.36    57.85    
 59.32    60.82    62.31    63.74    65.11    66.44    67.69    68.88    69.99    71.01    
 71.97    72.81    73.58    74.29    74.93    75.44    75.85    76.18    76.44    76.61    
 76.71    76.72    76.69    76.58    76.42    76.20    75.91    75.59    75.23    74.72    
 74.08    73.39    72.68    71.90    71.10    70.28    69.35    68.35    67.27    66.14    
 50.80    
47774.90 47354.79 46942.24 46507.23 45720.25 44813.08 43834.73 43062.05 42054.33 41182.88 
 40310.50 39324.40 38588.78 37814.15 36988.51 36066.37 35130.10 33914.99 31768.80 29752.00 
 27310.08 25542.68 24120.79 22697.91 21155.21 19315.80 17707.45 16565.60 14871.37 13227.14 
 11543.55 9942.93  8785.44  7685.56  6498.28  5342.06  4434.65  3892.72  3218.64  2621.82  
 2027.05  1638.99  1239.25  964.07   745.73   590.27   413.22   332.43   251.65   171.27   
 134.93   109.95   91.50    75.59    64.56    55.17    47.16    40.99    35.89    31.35    
 27.53    24.65    21.76    19.23    17.28    15.59    14.31    12.56    11.26    10.54    
 10.14    9.80     9.49     9.10     8.78     8.39     8.14     7.86     7.60     7.20     
 6.54     5.64     4.56     3.26     2.48     2.60     2.79     3.00     3.24     3.50     
 3.78     4.08     4.42     4.79     5.21     5.64     6.12     6.61     7.15     7.72     
 8.33     8.96     9.61     10.32    11.06    11.84    12.69    13.55    14.46    15.41    
 16.42    17.47    18.55    19.63    20.74    21.88    23.09    24.32    25.55    26.77    
 28.03    29.35    30.74    32.09    33.45    34.87    36.33    37.82    39.28    40.73    
 42.20    43.65    45.12    46.57    47.99    49.39    50.82    52.20    53.52    54.86    
 56.18    57.43    58.67    59.86    61.01    62.16    63.25    64.31    65.32    66.30    
 67.23    68.13    68.93    69.72    70.46    71.13    71.77    72.34    72.89    73.37    
 73.82    74.23    74.60    74.99    75.36    75.73    76.08    76.32    76.48    76.41    
 76.14    75.83    75.46    75.08    74.62    74.13    73.55    72.84    72.10    71.24    
 50.80    
47774.90 47996.11 48221.16 48430.85 48348.20 48080.60 47636.79 47391.81 46858.65 46344.52 
 45885.72 45391.33 44916.82 44440.48 43805.74 43223.76 42733.71 42284.96 41644.29 40902.55 
 40174.17 39395.50 38753.42 38227.00 37376.92 36732.79 35684.92 34777.09 33948.02 33063.54 
 32191.24 31113.26 30008.15 28969.89 27860.39 26783.21 25749.37 24682.64 23614.99 22471.86 
 21421.90 20383.94 19258.48 18217.65 17131.11 16069.63 15084.95 14047.18 13020.97 12119.11 
 11173.61 10281.85 9405.93  8634.74  7825.90  7090.18  6439.40  5847.33  5277.84  4708.64  
 4164.79  3719.34  3284.39  2948.16  2611.93  2276.14  1982.57  1734.77  1503.13  1295.95  
 1117.80  954.90   804.20   680.01   564.99   467.69   375.34   303.33   249.40   195.60   
 154.00   118.46   89.79    68.66    51.56    25.77    13.91    5.88     2.47     1.89     
 1.64     1.29     1.09     1.10     1.13     1.17     1.21     1.25     1.32     1.39     
 1.46     1.53     1.62     1.71     1.82     1.93     2.05     2.19     2.33     2.49     
 2.66     2.83     3.01     3.20     3.40     3.60     3.81     4.03     4.27     4.53     
 4.80     5.10     5.39     5.69     6.01     6.33     6.67     7.02     7.37     7.74     
 8.12     8.51     8.93     9.37     9.75     10.17    10.62    11.10    11.59    12.07    
 12.57    13.11    13.69    14.27    14.88    15.58    16.28    16.99    17.74    18.51    
 19.29    20.08    20.93    21.82    22.75    23.73    24.81    26.01    27.32    28.71    
 30.11    31.61    33.15    34.80    36.51    38.32    40.22    42.05    43.80    45.59    
 47.33    49.06    50.76    52.43    53.99    55.42    56.83    58.09    59.31    60.50    
 50.80    
47774.90 48673.56 49533.52 50321.08 50899.78 51331.50 51543.52 51925.27 52164.74 52450.85 
 52561.38 52626.33 52698.91 52775.56 52740.12 52715.81 52547.83 52378.33 52004.96 51457.71 
 50740.87 50126.49 49320.98 48569.85 47518.94 46505.62 45456.57 44250.30 43011.61 41732.63 
 40493.24 39398.19 38188.48 36977.72 35847.00 34644.91 33422.20 32243.39 31140.03 29966.31 
 28875.80 27910.05 26929.48 25832.78 24815.04 23794.00 22668.86 21682.98 20722.26 19705.64 
 18767.29 17763.02 16754.09 15873.07 15061.25 14234.04 13446.70 12651.70 11868.65 11173.23 
 10478.50 9769.47  9092.84  8470.43  7874.48  7271.08  6705.72  6144.76  5579.37  5074.81  
 4576.03  4123.17  3700.65  3278.01  2906.02  2597.35  2326.97  2054.10  1810.00  1588.06  
 1410.54  1254.49  1120.20  986.08   881.78   784.23   707.13   640.56   579.33   521.73   
 469.22   417.15   369.15   329.35   295.30   264.40   238.01   215.16   195.62   177.15   
 161.88   148.35   135.39   125.14   114.92   106.63   99.53    92.79    87.67    82.78    
 78.39    74.48    71.01    67.33    64.00    60.96    57.68    54.98    52.10    49.63    
 46.94    44.39    42.36    39.82    37.25    34.57    31.91    29.31    26.48    23.26    
 19.47    15.61    12.49    10.31    8.49     7.20     6.81     6.95     7.35     7.77     
 8.20     8.64     9.08     9.53     9.98     10.44    10.89    11.34    11.80    12.27    
 12.77    13.28    13.78    14.34    14.93    15.57    16.28    17.06    17.92    18.92    
 19.96    21.12    22.40    23.87    25.38    27.08    28.96    30.84    32.84    34.85    
 36.96    39.12    41.33    43.45    45.59    47.68    49.70    51.68    53.63    55.70    
 50.80    
47774.90 49284.86 50654.35 52003.76 53347.80 54575.28 55443.21 56365.02 57119.25 57722.96 
 57932.91 58066.00 57767.85 56900.51 55670.32 54246.81 53066.57 51808.27 50711.63 49736.01 
 48598.03 47531.39 46384.81 45261.58 44075.92 43037.46 41911.56 40841.67 39768.23 38730.64 
 37679.18 36556.53 35421.55 34258.02 33049.51 31762.21 30595.25 29440.17 28275.17 27283.02 
 26347.56 25463.17 24578.78 23695.22 22890.96 22135.07 21380.77 20658.66 19946.21 19226.20 
 18517.44 17767.60 17009.26 16189.69 15431.85 14724.17 14031.12 13374.94 12672.44 11934.33 
 11242.34 10604.96 9985.22  9446.34  8948.18  8451.70  7934.21  7354.18  6814.90  6287.03  
 5797.31  5305.68  4823.98  4358.06  3920.11  3417.48  3041.20  2664.93  2289.69  2009.51  
 1715.33  1459.91  1273.52  1098.30  965.06   847.90   762.86   695.75   640.33   593.61   
 545.01   497.79   452.09   413.04   378.30   349.04   321.39   297.31   275.04   257.15   
 239.27   221.43   208.41   196.34   185.31   175.62   167.03   159.13   152.13   145.91   
 140.24   135.30   130.10   125.25   120.87   116.59   112.67   108.64   104.96   101.39   
 98.01    94.68    91.58    88.56    85.58    82.53    79.56    76.30    73.40    70.39    
 67.81    64.95    62.25    59.65    57.13    54.74    52.08    49.23    46.48    43.77    
 40.90    37.90    33.95    31.51    28.76    23.46    21.32    15.82    9.45     8.21     
 7.93     8.28     8.78     9.30     9.83     10.37    10.93    11.52    12.19    12.98    
 13.79    14.65    15.59    16.66    17.88    19.23    20.76    22.42    24.22    26.23    
 28.46    30.72    33.09    35.52    38.10    40.72    43.42    46.15    49.03    52.03    
 50.80    
47774.90 49718.02 51565.86 53460.94 55140.26 56909.20 58416.06 59269.23 59628.69 59280.20 
 57678.11 56244.88 55113.16 54087.96 53067.61 51939.22 50964.79 49857.09 48620.23 47314.20 
 45839.71 44223.76 42658.56 40913.83 39271.60 37798.25 36458.32 35242.81 34092.79 33183.05 
 32523.34 31997.84 31585.49 31154.14 30686.63 30238.82 29783.16 29371.47 28897.36 28273.76 
 27504.89 26714.63 25932.18 25169.78 24423.55 23557.51 22554.45 21514.25 20537.80 19629.88 
 18740.92 17901.59 17074.73 16295.93 15589.52 14875.77 14157.95 13392.10 12637.85 11839.69 
 11169.60 10500.48 9833.65  9205.71  8564.37  7935.47  7316.00  6699.85  5987.65  5317.22  
 4740.83  4269.06  3851.16  3454.79  3070.77  2743.57  2365.87  2080.08  1835.24  1622.79  
 1415.06  1256.04  1114.83  973.76   873.48   786.68   711.26   645.80   596.71   554.09   
 512.83   471.68   431.05   397.80   366.18   339.15   316.53   297.61   281.21   266.72   
 253.67   242.13   231.56   222.65   213.67   205.13   197.97   191.36   185.06   179.03   
 173.13   167.88   162.52   157.71   153.39   149.17   145.21   141.43   137.51   133.94   
 130.42   126.63   122.83   119.09   115.51   112.28   108.98   105.48   102.15   98.77    
 95.43    92.28    88.99    85.82    82.73    79.64    76.87    73.80    70.84    67.91    
 64.94    61.41    58.61    56.05    53.59    51.25    49.09    46.05    42.67    39.12    
 36.46    32.00    30.17    27.49    26.04    22.41    13.25    12.16    11.54    11.28    
 10.89    10.95    11.72    12.66    13.72    14.88    16.07    17.38    18.92    20.64    
 22.56    24.71    27.02    29.48    32.10    34.85    37.72    41.00    44.43    48.17    
 50.80    
47774.90 50074.35 52261.49 54417.50 56643.37 58685.79 59777.81 60229.93 59049.98 57630.10 
