IESNA:LM-63-2002
[TEST] 1
[TESTLAB] AOK
[TESTDATE] 2022-06-02
[ISSUEDATE] 2022-06-02 15:15:07
[NEARFIELD] 
[LAMPPOSITION] 0,0
[OTHER] EVERFINE GO-2000A_V1 SYSTEM
[MANUFAC] AOK
[LUMCAT] A
[LUMINAIRE] AOK-1200WiSF-HV-S35-00-5070-2030D-P
[LAMPCAT] B
[LAMP] 3535
[BALLAST] E
[BALLASTCAT] F
[OTHER] 
[OTHER] Gamma(deg)    Fz(lm)      Ft(lm)     %Lum    %Lamp
[OTHER]   0- 10     49965.55    49965.55    30.62    30.62
[OTHER]  10- 20     60941.46   110907.02    67.97    67.97
[OTHER]  20- 30     25350.33   136257.35    83.51    83.51
[OTHER]  30- 40     10615.30   146872.64    90.02    90.02
[OTHER]  40- 50      6038.34   152910.98    93.72    93.72
[OTHER]  50- 60      4471.87   157382.85    96.46    96.46
[OTHER]  60- 70      2812.30   160195.15    98.18    98.18
[OTHER]  70- 80      1340.59   161535.74    99.00    99.00
[OTHER]  80- 90       522.79   162058.52    99.32    99.32
[OTHER]  90-100       266.08   162324.61    99.49    99.49
[OTHER] 100-110       187.57   162512.18    99.60    99.60
[OTHER] 110-120       146.14   162658.32    99.69    99.69
[OTHER] 120-130       116.69   162775.01    99.76    99.76
[OTHER] 130-140        89.27   162864.28    99.82    99.82
[OTHER] 140-150        77.25   162941.53    99.87    99.87
[OTHER] 150-160        90.08   163031.61    99.92    99.92
[OTHER] 160-170        92.98   163124.59    99.98    99.98
[OTHER] 170-180        35.50   163160.09   100.00   100.00
[OTHER] 
TILT=NONE
1 1.6316e+005 1 181 25 1 2 0.150 0.200 0.000
1.000 1 1191.98
0.0    1.0    2.0    3.0    4.0    5.0    6.0    7.0    8.0    9.0    
 10.0   11.0   12.0   13.0   14.0   15.0   16.0   17.0   18.0   19.0   
 20.0   21.0   22.0   23.0   24.0   25.0   26.0   27.0   28.0   29.0   
 30.0   31.0   32.0   33.0   34.0   35.0   36.0   37.0   38.0   39.0   
 40.0   41.0   42.0   43.0   44.0   45.0   46.0   47.0   48.0   49.0   
 50.0   51.0   52.0   53.0   54.0   55.0   56.0   57.0   58.0   59.0   
 60.0   61.0   62.0   63.0   64.0   65.0   66.0   67.0   68.0   69.0   
 70.0   71.0   72.0   73.0   74.0   75.0   76.0   77.0   78.0   79.0   
 80.0   81.0   82.0   83.0   84.0   85.0   86.0   87.0   88.0   89.0   
 90.0   91.0   92.0   93.0   94.0   95.0   96.0   97.0   98.0   99.0   
 100.0  101.0  102.0  103.0  104.0  105.0  106.0  107.0  108.0  109.0  
 110.0  111.0  112.0  113.0  114.0  115.0  116.0  117.0  118.0  119.0  
 120.0  121.0  122.0  123.0  124.0  125.0  126.0  127.0  128.0  129.0  
 130.0  131.0  132.0  133.0  134.0  135.0  136.0  137.0  138.0  139.0  
 140.0  141.0  142.0  143.0  144.0  145.0  146.0  147.0  148.0  149.0  
 150.0  151.0  152.0  153.0  154.0  155.0  156.0  157.0  158.0  159.0  
 160.0  161.0  162.0  163.0  164.0  165.0  166.0  167.0  168.0  169.0  
 170.0  171.0  172.0  173.0  174.0  175.0  176.0  177.0  178.0  179.0  
 180.0  
0.0    15.0   30.0   45.0   60.0   75.0   90.0   105.0  120.0  135.0  
 150.0  165.0  180.0  195.0  210.0  225.0  240.0  255.0  270.0  285.0  
 300.0  315.0  330.0  345.0  360.0  
651211.69 652264.53 646550.88 635199.13 613936.50 546808.48 476876.62 402918.45 320435.47 258962.46 
 195741.27 145378.90 122108.01 99138.12 76168.23 68500.29 62425.25 57262.61 45438.32 38579.72 
 29305.71 18527.33 10685.74 6293.43  1939.49  1284.66  669.54   54.41    38.22    27.89    
 24.10    20.85    18.11    16.11    14.49    12.91    11.91    11.24    10.63    10.31    
 10.08    9.65     9.17     9.15     8.74     8.32     8.07     7.56     6.86     6.54     
 6.48     6.49     6.08     5.82     5.57     5.50     5.49     5.32     5.32     5.21     
 5.11     5.08     5.06     5.02     5.01     5.01     4.99     4.96     4.94     4.93     
 4.93     4.93     4.93     4.93     4.93     4.93     4.94     4.94     4.96     4.99     
 5.04     5.07     5.09     5.11     5.16     5.22     5.28     5.36     5.49     5.62     
 5.77     5.95     6.11     6.29     6.48     6.71     6.96     7.23     7.51     7.81     
 8.12     8.47     8.82     9.19     9.58     10.00    10.44    10.89    11.35    11.85    
 12.35    12.86    13.38    13.95    14.56    15.18    15.82    16.49    17.22    17.99    
 18.80    19.65    20.48    21.37    22.32    23.32    24.34    25.48    26.70    28.01    
 29.43    30.94    32.58    34.49    36.75    39.40    42.48    46.06    50.21    55.03    
 60.47    66.71    73.57    81.17    89.44    98.67    109.03   120.83   134.36   150.07   
 168.17   188.60   211.42   239.22   267.08   296.93   327.99   359.14   391.56   423.69   
 454.03   482.38   509.33   534.29   555.17   571.29   583.00   589.02   589.70   585.69   
 577.18   564.91   551.15   534.29   516.86   497.38   476.48   454.21   430.14   403.29   
 369.71   
651211.69 656354.31 653324.62 646406.60 632215.55 596626.61 526131.35 465317.46 393205.79 321882.84 
 262064.94 202334.75 153276.28 108151.98 90741.85 80072.93 71419.37 64468.54 57958.73 48435.70 
 39200.13 28903.27 18644.37 13021.41 7032.78  3848.52  690.27   364.84   297.53   230.22   
 163.13   126.50   107.39   100.79   85.62    67.76    59.24    60.90    49.47    40.71    
 37.30    34.16    32.11    27.05    22.92    20.39    17.91    16.39    14.93    13.99    
 12.77    11.24    10.21    9.65     9.33     9.13     9.36     9.44     9.24     8.93     
 8.50     8.06     7.69     7.37     7.08     6.80     6.66     6.53     6.42     6.29     
 6.17     6.04     5.90     5.76     5.64     5.54     5.44     5.32     5.22     5.13     
 5.04     4.97     4.97     4.99     5.03     5.11     5.20     5.30     5.42     5.56     
 5.70     5.88     5.99     6.16     6.37     6.60     6.85     7.12     7.42     7.75     
 8.06     8.39     8.76     9.12     9.51     9.90     10.32    10.78    11.26    11.75    
 12.25    12.77    13.31    13.88    14.45    15.08    15.74    16.42    17.12    17.88    
 18.68    19.53    20.44    21.35    22.34    23.37    24.47    25.64    26.88    28.23    
 29.74    31.35    33.18    35.32    37.74    40.56    43.88    47.77    52.02    56.93    
 62.60    68.75    75.57    83.05    91.36    100.70   111.05   123.94   136.85   152.53   
 170.24   190.66   212.72   237.98   265.27   294.42   324.81   355.30   386.90   417.55   
 447.17   475.80   502.37   527.22   548.26   565.01   576.29   582.47   583.24   579.40   
 571.45   560.01   546.21   530.40   513.15   494.56   474.36   453.10   430.17   405.57   
 369.71   
651211.69 656969.77 655763.50 650678.88 641217.88 626269.95 579841.09 518276.81 458979.47 394851.58 
 326335.31 272683.74 215687.34 165806.30 128516.91 106361.29 84362.03 73804.78 64714.84 57061.23 
 50849.28 43233.84 32408.79 23585.03 16099.55 11775.98 7486.20  3196.41  1713.56  1263.24  
 825.43   387.61   249.62   174.64   134.73   107.39   80.19    65.43    55.57    48.00    
 41.96    36.77    33.22    30.69    28.56    26.67    25.35    24.26    23.17    22.37    
 21.60    20.49    18.90    16.48    13.79    12.57    12.38    12.04    11.73    11.54    
 11.31    11.13    11.04    11.00    10.81    10.50    10.14    9.77     9.43     9.11     
 8.82     8.51     8.15     7.78     7.39     7.01     6.59     6.19     5.84     5.54     
 5.27     5.06     4.92     4.89     4.90     4.99     5.09     5.21     5.36     5.52     
 5.68     5.87     6.08     6.32     6.59     6.87     7.14     7.42     7.73     8.06     
 8.41     8.79     9.18     9.59     10.01    10.45    10.91    11.38    11.88    12.39    
 12.90    13.43    14.01    14.60    15.22    15.88    16.56    17.28    18.05    18.84    
 19.66    20.53    21.48    22.47    23.48    24.57    25.82    27.20    28.70    30.37    
 32.24    34.37    36.87    39.71    42.94    46.50    50.48    55.00    60.03    65.57    
 71.63    78.26    85.73    94.01    103.26   113.85   125.71   139.06   153.94   171.00   
 190.27   211.15   233.45   258.78   284.15   311.31   338.98   366.66   394.42   422.68   
 449.42   474.59   497.94   518.49   535.12   547.75   556.00   560.02   559.89   556.05   
 549.14   539.48   528.36   515.08   500.00   483.08   464.53   444.75   423.67   400.70   
 369.71   
651211.69 657790.93 659826.56 656681.46 650887.19 639583.91 621337.79 596853.94 542283.13 489021.97 
 432071.87 378549.64 315240.86 266122.34 217101.73 178968.27 141363.59 115999.51 84954.22 71938.53 
 61622.04 53166.97 45770.94 39727.75 34635.77 29375.01 24114.24 18853.19 13575.64 9723.93  
 6908.81  4479.67  3181.42  1887.86  1176.07  813.07   534.59   369.92   306.80   243.68   
 180.82   145.08   113.78   94.09    78.47    68.36    60.66    53.92    48.30    44.38    
 41.90    39.71    37.42    35.58    33.80    31.70    29.74    27.72    25.55    21.42    
 16.66    16.06    15.75    15.13    14.49    13.92    13.38    12.94    12.50    12.07    
 11.63    11.18    10.71    10.21    9.67     9.05     8.38     7.69     6.94     6.22     
 5.60     5.07     4.64     4.41     4.43     4.53     4.66     4.81     4.97     5.16     
 5.36     5.59     5.81     6.07     6.35     6.64     6.96     7.29     7.66     8.02     
 8.39     8.78     9.20     9.65     10.11    10.59    11.10    11.62    12.17    12.72    
 13.30    13.87    14.49    15.13    15.78    16.47    17.19    17.92    18.68    19.51    
 20.42    21.45    22.54    23.65    24.89    26.28    27.86    29.61    31.54    33.69    
 36.07    38.73    41.69    44.95    48.53    52.47    56.96    61.90    67.25    73.32    
 80.28    87.93    96.58    106.16   116.92   130.08   143.26   158.29   174.46   192.45   
 211.89   232.33   253.68   276.92   300.56   324.85   349.72   373.96   398.69   422.24   
 444.41   464.60   482.78   498.91   511.77   521.93   528.90   532.83   533.81   532.33   
 528.14   521.62   512.66   501.39   488.34   473.66   457.23   440.10   421.44   401.72   
 369.71   
651211.69 656788.37 659943.56 659150.65 652823.98 640278.87 623723.31 604603.81 582485.09 555506.22 
 523685.85 471678.91 417543.98 374077.28 322099.34 277172.93 236479.18 193121.95 161103.78 132648.73 
 107956.61 83309.08 66550.21 55505.49 47649.83 38533.28 33623.63 29643.93 26280.00 22952.65 
 19670.97 17016.02 14409.81 12142.06 9732.16  7320.61  5682.52  4196.66  3216.97  2461.83  
 1881.48  1389.71  1109.23  831.29   553.36   414.90   308.94   245.91   199.82   163.73   
 136.68   119.47   102.38   90.69    80.75    73.11    66.60    60.38    55.32    50.83    
 46.96    43.56    40.49    38.28    36.36    34.23    29.89    21.39    19.02    18.08    
 17.22    16.45    15.72    15.00    14.29    13.56    12.72    11.78    10.76    9.57     
 8.23     6.94     5.85     5.09     4.81     4.84     4.98     5.14     5.32     5.50     
 5.71     5.94     6.18     6.47     6.76     7.08     7.42     7.77     8.14     8.54     
 8.94     9.37     9.82     10.28    10.77    11.28    11.79    12.31    12.89    13.48    
 14.09    14.73    15.40    16.09    16.81    17.57    18.37    19.20    20.11    21.08    
 22.11    23.20    24.45    25.81    27.28    28.82    30.63    32.62    34.77    37.19    
 39.79    42.67    45.83    49.42    53.51    58.09    63.24    69.04    75.56    82.92    
 91.25    100.57   110.97   122.44   135.02   149.02   164.39   180.41   197.47   215.91   
 235.80   257.15   278.52   299.23   319.84   341.04   362.43   382.78   402.04   420.39   
 437.91   453.23   466.90   479.03   489.24   497.41   503.45   507.29   509.05   508.48   
 505.64   500.70   493.49   484.79   474.26   462.53   449.53   434.90   419.04   401.76   
 369.71   
651211.69 655601.14 658930.38 659727.18 655926.81 644319.12 627834.33 609028.15 586236.60 560170.59 
 532678.41 503551.99 472766.53 437393.61 399872.95 359016.09 316560.54 276219.10 235877.65 195597.38 
 163571.40 135853.10 111348.20 93884.31 81804.57 72193.46 63460.75 55074.19 48659.73 43353.57 
 38190.64 33130.54 29234.32 25338.09 21448.96 18408.32 15538.17 13348.32 11502.54 9895.71  
 8658.31  7676.55  6868.96  6163.38  5578.63  5045.46  4590.76  4157.40  3760.24  3365.25  
 2977.22  2589.19  2201.02  1799.20  1413.15  1061.46  801.04   612.75   481.33   393.74   
 324.81   272.53   220.41   185.11   157.35   135.18   117.90   101.77   88.14    75.99    
 65.78    57.66    51.19    46.50    42.33    38.65    32.99    24.51    22.50    20.74    
 18.90    16.74    13.74    9.90     5.85     4.44     4.50     4.59     4.72     4.87     
 5.03     5.23     5.43     5.68     5.93     6.21     6.52     6.84     7.19     7.57     
 7.95     8.36     8.81     9.32     9.83     10.36    10.90    11.48    12.08    12.71    
 13.35    14.03    14.73    15.47    16.22    17.01    17.85    18.71    19.61    20.65    
 21.72    22.91    24.22    25.61    27.17    28.88    30.81    32.94    35.27    37.88    
 40.72    43.90    47.54    51.54    56.01    61.03    67.02    73.61    80.81    89.12    
 98.71    109.23   121.69   134.16   148.15   163.37   179.36   196.37   214.19   232.74   
 251.61   270.66   289.35   308.49   327.17   345.76   363.93   381.15   398.28   414.30   
 429.37   443.39   456.26   468.08   478.48   487.63   494.83   500.34   503.89   505.47   
 504.96   502.66   498.61   492.20   484.10   474.12   462.59   449.46   434.61   419.28   
 369.71   
651211.69 652595.54 652993.70 651942.31 647982.06 637550.21 621806.90 604113.61 582400.96 558589.79 
 532411.21 504618.70 475837.67 442030.72 405514.31 366705.92 323196.99 279138.73 238786.45 198514.23 
 166126.84 139867.28 118471.63 101901.48 88722.05 78239.19 69075.67 61594.05 55294.39 49781.81 
 44727.45 39858.97 35189.81 31032.38 26988.17 23739.81 20498.95 17908.59 15851.53 14179.05 
 12917.52 12000.55 11276.66 10639.15 10129.71 9723.39  9384.39  9053.43  8699.68  8300.73  
 7845.79  7347.71  6809.68  6272.78  5778.78  5333.94  4927.00  4532.11  4167.17  3813.21  
 3494.15  3189.69  2908.10  2674.72  2441.34  2208.26  2004.09  1811.50  1628.66  1459.53  
 1301.96  1163.49  1031.24  903.46   782.22   674.19   574.83   488.60   411.77   347.36   
 291.40   242.92   194.58   158.78   126.70   79.86    35.81    7.82     3.28     2.84     
 2.60     2.54     2.48     2.39     2.30     2.19     2.07     1.82     1.66     1.66     
 1.67     1.71     1.75     1.81     1.88     1.95     2.03     2.12     2.21     2.32     
 2.42     2.53     2.65     2.78     2.92     3.05     3.20     3.35     3.52     3.71     
 3.91     4.13     4.36     4.62     4.92     5.25     5.62     6.05     6.52     7.01     
 7.58     8.22     8.95     9.78     10.77    11.85    13.08    14.56    16.18    17.97    
 20.06    22.35    24.83    27.64    30.62    34.00    37.57    41.38    45.41    49.64    
 54.10    58.61    63.37    68.39    73.52    78.93    84.57    90.48    96.85    103.51   
 110.47   118.04   125.62   133.27   141.13   149.67   159.05   169.25   180.12   191.84   
 204.52   218.05   232.66   248.54   264.99   282.06   299.61   317.24   334.55   351.78   
 369.71   
651211.69 652245.66 652178.72 650487.91 646117.01 636453.72 620765.54 603218.65 581341.59 556798.27 
 528666.52 498476.56 464627.71 428645.65 390843.77 351111.67 311847.88 274204.97 237065.54 199255.77 
 166128.37 139834.95 119419.02 107323.76 95298.22 83272.70 75553.42 68962.79 62886.72 57051.70 
 51646.15 46514.50 41441.58 36785.38 32425.39 28679.39 25261.15 22232.10 19749.69 17785.16 
 16252.82 15076.86 14151.61 13472.33 12892.74 12400.27 11927.29 11518.26 11153.10 10788.27 
 10423.45 10071.31 9693.09  9278.14  8831.69  8357.98  7865.01  7377.21  6919.12  6458.22  
 6044.49  5660.34  5310.29  4978.80  4667.62  4361.96  4070.78  3791.52  3515.03  3251.86  
 3004.03  2779.91  2566.82  2360.08  2161.75  1980.97  1816.70  1656.38  1508.26  1376.59  
 1257.24  1146.73  1047.28  947.91   865.13   793.44   730.72   676.60   629.56   587.16   
 548.85   512.26   478.39   446.62   417.99   391.25   366.79   344.85   324.27   306.95   
 291.77   277.24   263.36   249.61   236.64   223.60   210.22   196.84   182.20   166.77   
 150.38   132.73   114.15   95.56    76.98    63.39    53.04    45.96    39.49    24.82    
 6.99     3.69     3.57     3.73     3.91     4.11     4.34     4.62     4.94     5.29     
 5.69     6.15     6.66     7.29     8.03     8.91     9.90     11.08    12.45    13.99    
 15.74    17.73    19.95    22.41    25.26    28.39    31.64    35.06    38.71    42.57    
 46.64    50.74    54.18    58.21    62.73    67.26    71.81    76.44    81.31    86.32    
 91.66    97.35    103.41   109.78   116.84   124.83   133.58   143.09   153.45   167.18   
 181.20   193.64   209.98   229.02   248.08   268.09   288.61   309.99   330.59   351.60   
 369.71   
651211.69 651492.97 649727.40 646623.54 641634.86 633092.64 619860.30 601214.92 576492.45 546055.16 
 508587.71 468618.79 427095.48 384578.44 344016.57 306599.51 271164.54 237929.57 204754.01 176261.18 
 151664.48 130646.32 113904.05 101190.40 90917.34 82657.76 75264.82 69320.97 63591.83 57914.52 
 52470.59 46749.51 41500.64 36781.77 32371.58 28335.04 25409.51 22483.99 19569.83 17596.37 
 16123.67 15085.02 14347.11 13779.04 13326.63 12918.59 12524.02 12174.16 11834.29 11502.25 
 11187.79 10877.42 10559.65 10228.48 9876.29  9497.05  9120.70  8729.18  8311.21  7880.49  
 7466.31  7033.76  6594.55  6170.99  5780.42  5424.33  5073.70  4734.60  4403.21  4079.48  
 3759.37  3455.86  3170.94  2911.09  2677.17  2443.25  2209.56  1998.64  1815.74  1650.47  
 1501.73  1366.24  1245.59  1144.17  1056.68  978.21   910.34   854.32   802.79   755.53   
 717.25   680.51   642.83   608.74   576.37   547.33   522.25   499.26   479.61   460.76   
 444.38   429.58   415.86   403.87   391.93   380.86   371.16   361.58   353.21   345.06   
 337.85   331.37   324.78   318.36   312.88   307.23   301.75   295.31   288.80   282.41   
 275.74   268.96   260.84   253.54   246.65   239.30   228.30   217.28   203.86   187.22   
 164.32   130.82   89.37    57.06    36.76    25.67    13.02    7.17     7.91     9.04     
 10.40    12.04    13.86    15.99    18.34    20.99    23.91    27.04    30.42    34.11    
 38.00    42.09    46.52    51.00    55.31    59.92    64.68    69.51    74.55    79.70    
 84.96    90.31    95.85    101.89   108.09   114.85   122.64   131.03   140.28   152.55   
 163.94   177.01   193.26   211.66   231.34   252.11   274.67   297.92   322.20   346.53   
 369.71   
651211.69 649473.68 644786.42 638351.53 629105.69 616347.01 596072.08 567309.31 530547.03 485254.37 
 436057.26 386251.98 339466.84 297073.33 261419.78 231222.16 205008.42 182690.59 163088.12 146265.69 
 131305.76 117970.07 106472.00 94989.75 84988.32 75699.53 66776.21 58594.15 50670.39 43169.49 
 36612.92 31086.02 26818.99 23706.87 21568.86 20070.46 18940.91 17975.07 17142.96 16378.33 
 15679.33 15019.18 14401.45 13845.29 13377.66 12903.14 12489.79 12107.56 11775.36 11413.99 
 11052.40 10690.81 10335.20 10011.04 9680.19  9358.59  9045.60  8717.17  8364.17  7970.21  
 7589.91  7233.60  6876.88  6493.82  6096.93  5720.08  5362.01  5007.99  4663.70  4310.57  
 3977.94  3619.85  3317.90  3032.21  2765.65  2523.31  2294.37  2066.71  1849.92  1675.89  
 1520.07  1377.59  1249.57  1156.16  1063.00  969.85   904.69   846.51   790.23   747.08   
 713.27   677.49   645.08   615.20   590.57   567.50   547.85   529.51   512.66   496.60   
 481.56   468.32   457.31   446.78   437.55   428.24   419.09   411.53   403.91   397.08   
 390.43   385.02   379.26   374.45   369.61   365.39   360.84   356.64   352.56   347.97   
 344.42   340.80   337.52   333.77   329.61   325.77   321.02   316.80   311.40   306.34   
 300.83   296.27   289.89   283.86   275.83   267.50   256.74   244.33   232.62   216.56   
 195.35   157.40   94.31    30.97    19.75    17.41    17.96    20.77    24.06    27.70    
 31.58    35.75    40.19    44.83    49.72    54.65    59.96    65.43    71.15    78.47    
 84.51    89.94    96.88    104.48   112.23   120.49   128.93   137.64   146.58   156.11   
