IESNA:LM-63-2002
[TEST] 1
[TESTLAB] AOK
[TESTDATE] 2022-06-06
[ISSUEDATE] 2022-06-06 10:41:11
[NEARFIELD] 
[LAMPPOSITION] 0,0
[OTHER] EVERFINE GO-2000A_V1 SYSTEM
[MANUFAC] AOK
[LUMCAT] A
[LUMINAIRE] AOK-1200WiSF-HV-S35-00-5070-15D-P
[LAMPCAT] B
[LAMP] 3535
[BALLAST] E
[BALLASTCAT] F
[OTHER] 
[OTHER] Gamma(deg)    Fz(lm)      Ft(lm)     %Lum    %Lamp
[OTHER]   0- 10     64804.14    64804.14    41.38    41.38
[OTHER]  10- 20     47129.27   111933.41    71.47    71.47
[OTHER]  20- 30     18323.01   130256.42    83.17    83.17
[OTHER]  30- 40      8617.31   138873.73    88.67    88.67
[OTHER]  40- 50      6258.54   145132.26    92.67    92.67
[OTHER]  50- 60      4902.70   150034.96    95.80    95.80
[OTHER]  60- 70      3319.53   153354.49    97.92    97.92
[OTHER]  70- 80      1656.56   155011.05    98.97    98.97
[OTHER]  80- 90       586.98   155598.03    99.35    99.35
[OTHER]  90-100       251.11   155849.14    99.51    99.51
[OTHER] 100-110       167.84   156016.98    99.62    99.62
[OTHER] 110-120       130.86   156147.84    99.70    99.70
[OTHER] 120-130       105.00   156252.84    99.77    99.77
[OTHER] 130-140        80.63   156333.47    99.82    99.82
[OTHER] 140-150        67.01   156400.48    99.86    99.86
[OTHER] 150-160        88.75   156489.23    99.92    99.92
[OTHER] 160-170        96.39   156585.62    99.98    99.98
[OTHER] 170-180        33.20   156618.82   100.00   100.00
[OTHER] 
TILT=NONE
1 1.5662e+005 1 181 25 1 2 0.150 0.200 0.000
1.000 1 1187.18
0.0    1.0    2.0    3.0    4.0    5.0    6.0    7.0    8.0    9.0    
 10.0   11.0   12.0   13.0   14.0   15.0   16.0   17.0   18.0   19.0   
 20.0   21.0   22.0   23.0   24.0   25.0   26.0   27.0   28.0   29.0   
 30.0   31.0   32.0   33.0   34.0   35.0   36.0   37.0   38.0   39.0   
 40.0   41.0   42.0   43.0   44.0   45.0   46.0   47.0   48.0   49.0   
 50.0   51.0   52.0   53.0   54.0   55.0   56.0   57.0   58.0   59.0   
 60.0   61.0   62.0   63.0   64.0   65.0   66.0   67.0   68.0   69.0   
 70.0   71.0   72.0   73.0   74.0   75.0   76.0   77.0   78.0   79.0   
 80.0   81.0   82.0   83.0   84.0   85.0   86.0   87.0   88.0   89.0   
 90.0   91.0   92.0   93.0   94.0   95.0   96.0   97.0   98.0   99.0   
 100.0  101.0  102.0  103.0  104.0  105.0  106.0  107.0  108.0  109.0  
 110.0  111.0  112.0  113.0  114.0  115.0  116.0  117.0  118.0  119.0  
 120.0  121.0  122.0  123.0  124.0  125.0  126.0  127.0  128.0  129.0  
 130.0  131.0  132.0  133.0  134.0  135.0  136.0  137.0  138.0  139.0  
 140.0  141.0  142.0  143.0  144.0  145.0  146.0  147.0  148.0  149.0  
 150.0  151.0  152.0  153.0  154.0  155.0  156.0  157.0  158.0  159.0  
 160.0  161.0  162.0  163.0  164.0  165.0  166.0  167.0  168.0  169.0  
 170.0  171.0  172.0  173.0  174.0  175.0  176.0  177.0  178.0  179.0  
 180.0  
0.0    15.0   30.0   45.0   60.0   75.0   90.0   105.0  120.0  135.0  
 150.0  165.0  180.0  195.0  210.0  225.0  240.0  255.0  270.0  285.0  
 300.0  315.0  330.0  345.0  360.0  
981038.31 979078.96 975494.05 965525.09 919278.58 815287.81 710073.60 592059.66 475606.16 355374.26 
 259218.99 180951.01 121014.58 103531.45 86509.74 74939.70 65246.25 56810.89 44125.59 33476.47 
 22701.07 14849.73 10136.08 5458.07  780.05   507.11   281.46   55.80    37.41    30.72    
 26.45    22.93    20.10    17.79    16.17    14.64    13.15    12.14    11.29    10.45    
 9.81     9.64     9.21     8.86     8.43     8.05     7.88     7.77     7.39     7.03     
 6.42     6.08     6.03     6.20     6.24     6.02     5.70     5.51     5.35     5.23     
 5.16     5.11     5.05     5.02     4.98     4.95     4.93     4.90     4.88     4.87     
 4.87     4.87     4.87     4.88     4.88     4.88     4.88     4.89     4.90     4.94     
 4.98     5.02     5.06     5.11     5.18     5.26     5.37     5.50     5.64     5.81     
 5.98     6.17     6.38     6.60     6.85     7.10     7.38     7.70     8.01     8.33     
 8.67     9.03     9.42     9.86     10.35    10.85    11.37    11.92    12.46    13.06    
 13.70    14.32    14.97    15.66    16.37    17.11    17.89    18.69    19.55    20.48    
 21.41    22.36    23.37    24.46    25.56    26.74    28.06    29.47    30.97    32.62    
 34.43    36.41    38.66    41.19    43.99    47.13    50.68    54.73    59.27    64.40    
 70.04    76.31    83.43    91.37    100.25   110.52   122.11   135.28   150.18   168.06   
 188.90   212.34   239.60   266.90   297.49   330.13   362.88   394.76   427.28   458.81   
 487.53   513.29   537.21   557.30   571.54   579.91   582.67   579.73   571.97   560.10   
 545.00   529.07   511.96   494.27   476.18   457.65   437.54   416.28   392.69   367.51   
 335.64   
981038.31 984719.29 983796.72 980175.93 968938.24 900736.20 801074.96 697622.36 583503.76 473621.96 
 353996.47 268896.56 183982.82 121362.22 101519.24 87350.30 76044.11 66580.29 58853.08 46400.97 
 37953.28 27380.65 16842.83 10582.25 7172.22  3762.18  382.53   313.38   244.24   175.22   
 119.78   98.57    83.48    64.56    58.57    52.48    42.67    34.73    27.33    23.05    
 19.97    17.56    15.56    14.08    12.78    11.93    11.17    10.77    10.69    10.41    
 10.01    9.54     8.75     7.93     7.59     7.39     7.46     7.46     7.46     7.46     
 7.45     7.30     7.00     6.66     6.39     6.21     6.09     6.01     5.92     5.83     
 5.74     5.65     5.55     5.48     5.40     5.31     5.20     5.10     5.02     4.95     
 4.89     4.83     4.83     4.86     4.91     4.99     5.08     5.19     5.30     5.44     
 5.59     5.76     5.94     6.14     6.39     6.66     6.94     7.18     7.45     7.75     
 8.11     8.49     8.90     9.36     9.86     10.27    10.74    11.25    11.79    12.32    
 12.86    13.44    14.04    14.70    15.38    16.09    16.84    17.62    18.40    19.24    
 20.12    21.11    22.12    23.14    24.19    25.32    26.55    27.88    29.32    30.87    
 32.57    34.41    36.50    38.79    41.32    44.13    47.37    50.97    54.90    59.35    
 64.48    70.08    76.27    83.21    91.00    99.93    109.94   122.55   135.20   150.95   
 168.64   189.43   211.84   237.86   266.24   296.22   328.54   360.43   393.50   425.64   
 456.61   485.66   512.74   537.08   556.43   570.61   578.81   581.32   578.60   571.17   
 560.36   546.97   532.21   516.32   499.42   481.88   462.88   442.45   419.97   395.45   
 335.64   
981038.31 987391.41 987580.71 985713.99 977855.14 955369.63 870305.88 771479.47 661098.56 541210.44 
 434800.29 330577.60 251216.83 179481.45 125571.24 104776.70 84325.33 73774.79 64990.71 57284.52 
 50624.59 41269.43 33265.03 24319.44 16077.01 11692.40 7349.12  3005.84  1396.07  899.85   
 417.16   282.01   201.03   161.04   132.66   104.40   76.15    62.08    52.23    44.23    
 37.31    32.41    28.30    25.12    22.93    20.86    19.41    18.08    17.10    16.46    
 15.94    15.53    15.37    15.02    14.05    12.76    11.06    9.83     9.68     9.66     
 9.61     9.64     9.60     9.46     9.30     9.13     8.91     8.69     8.47     8.27     
 8.02     7.77     7.50     7.18     6.84     6.54     6.20     5.85     5.53     5.24     
 4.99     4.79     4.62     4.57     4.57     4.65     4.75     4.87     5.02     5.18     
 5.37     5.57     5.79     6.04     6.31     6.59     6.90     7.23     7.56     7.90     
 8.28     8.68     9.08     9.55     10.11    10.45    10.96    11.46    11.97    12.48    
 12.99    13.59    14.18    14.83    15.52    16.20    16.91    17.64    18.44    19.26    
 20.12    20.99    21.92    22.90    23.94    25.04    26.23    27.52    28.96    30.48    
 32.11    33.91    35.87    38.04    40.52    43.24    46.25    49.57    53.22    57.32    
 61.89    67.07    72.73    79.08    86.27    94.57    104.09   114.88   127.17   141.87   
 159.08   178.56   200.02   223.60   252.42   281.31   311.77   342.96   375.93   408.91   
 440.71   470.89   499.56   524.23   544.91   560.64   571.18   576.43   576.58   572.33   
 564.62   554.22   541.76   527.54   511.80   494.36   475.05   454.52   431.81   406.42   
 335.64   
981038.31 990853.02 993488.55 991650.37 986690.97 974923.30 954199.57 888441.33 781391.84 659742.58 
 531231.14 417869.21 320151.42 252784.69 185667.07 146297.46 112072.81 92354.33 71251.68 62430.24 
 55114.69 48789.81 42872.00 37349.34 32248.67 26442.36 20653.18 16725.52 12299.93 8953.56  
 6159.91  4192.09  2889.34  1591.39  886.11   502.97   394.16   285.34   177.21   142.25   
 116.75   93.83    75.44    63.01    54.75    48.43    43.63    39.49    36.28    33.55    
 31.35    29.81    28.37    27.10    26.10    25.44    24.91    24.16    23.20    22.27    
 21.09    19.05    15.07    12.74    12.45    12.14    11.65    11.25    10.99    10.75    
 10.46    10.14    9.78     9.38     8.98     8.53     8.02     7.49     6.93     6.29     
 5.67     5.13     4.65     4.27     4.06     4.08     4.17     4.31     4.46     4.63     
 4.84     5.06     5.29     5.54     5.81     6.10     6.42     6.76     7.12     7.48     
 7.85     8.25     8.69     9.16     9.68     10.26    10.59    11.14    11.70    12.25    
 12.77    13.33    13.93    14.57    15.22    15.88    16.59    17.31    18.06    18.83    
 19.65    20.54    21.48    22.42    23.44    24.48    25.60    26.80    28.06    29.42    
 30.93    32.56    34.33    36.28    38.41    40.79    43.47    46.42    49.63    53.23    
 57.41    62.04    67.20    73.09    79.81    87.63    96.43    106.60   119.80   133.04   
 148.90   167.23   187.41   210.81   236.39   264.18   294.21   324.92   357.59   389.86   
 421.98   452.43   480.91   506.89   528.44   546.49   559.60   568.28   572.37   572.11   
 567.86   560.07   549.42   536.38   521.19   503.35   483.86   463.03   439.32   413.98   
 335.64   
981038.31 991607.28 995740.45 993426.96 986698.29 975727.72 954550.05 912320.21 839208.15 741706.31 
 615796.66 488422.48 382715.27 299463.65 232093.12 188332.68 150811.17 121437.46 102817.65 84330.81 
 68679.67 58576.84 48307.54 41568.92 34756.38 28263.22 23608.47 19864.28 16767.15 14241.32 
 12180.47 10589.23 9003.58  7836.82  6805.66  5762.81  4882.75  4027.90  3263.46  2505.27  
 1978.77  1501.21  1173.26  847.12   520.98   360.51   265.43   206.43   166.79   136.96   
 116.93   97.00    84.37    74.83    67.42    60.99    55.34    50.57    46.74    43.39    
 40.78    38.74    36.56    34.10    32.27    30.81    29.58    28.36    26.74    23.01    
 16.43    14.72    14.10    13.53    13.05    12.56    12.03    11.41    10.73    9.97     
 9.14     8.14     6.99     5.93     5.10     4.55     4.47     4.55     4.71     4.88     
 5.08     5.30     5.53     5.78     6.06     6.36     6.67     7.00     7.34     7.71     
 8.08     8.47     8.88     9.31     9.77     10.22    10.70    11.20    11.71    12.23    
 12.80    13.39    13.99    14.62    15.28    15.97    16.67    17.39    18.13    18.90    
 19.71    20.53    21.40    22.29    23.21    24.17    25.17    26.22    27.34    28.53    
 29.81    31.24    32.79    34.48    36.37    38.48    40.88    43.63    46.75    50.18    
 54.08    58.41    63.36    69.27    76.08    83.81    92.66    102.79   114.34   128.55   
 145.36   164.44   185.39   208.18   232.04   261.98   292.00   323.11   354.09   384.10   
 414.54   444.94   471.99   495.63   517.33   535.15   548.68   558.79   564.30   565.65   
 562.87   556.64   546.48   533.38   517.92   500.66   481.60   460.94   438.57   415.30   
 335.64   
981038.31 993324.53 999235.84 999065.96 993699.68 981781.26 957831.29 911577.34 834614.35 734816.58 
 623666.49 517062.49 417534.40 334756.54 278413.78 222254.74 186038.73 156401.24 132104.97 112360.99 
 95565.53 80845.49 67598.02 57901.16 49609.83 42183.77 35380.21 29835.29 26028.70 22231.05 
 19337.32 16862.26 15001.11 13484.16 12148.45 10986.48 9943.69  9064.00  8360.71  7710.54  
 7091.05  6568.36  6056.75  5611.22  5207.73  4840.04  4501.49  4189.00  3878.97  3568.10  
 3254.14  2920.55  2586.95  2253.10  1885.53  1522.22  1178.96  866.89   650.02   504.72   
 405.15   327.90   279.26   230.63   182.14   152.69   129.81   111.16   96.25    82.76    
 71.20    60.77    53.00    46.93    41.94    38.17    34.71    31.89    29.13    24.39    
 17.96    16.65    15.35    13.67    11.45    8.51     5.51     4.11     4.16     4.29     
 4.43     4.59     4.76     4.96     5.20     5.44     5.70     5.97     6.26     6.59     
 6.91     7.26     7.63     8.02     8.44     8.86     9.31     9.80     10.30    10.81    
 11.34    11.90    12.48    13.09    13.70    14.34    15.02    15.71    16.40    17.13    
 17.90    18.70    19.54    20.38    21.22    22.12    23.04    24.06    25.09    26.16    
 27.28    28.52    29.82    31.30    32.93    34.73    36.81    39.14    41.76    44.78    
 48.35    52.43    57.09    62.54    68.89    76.28    84.87    94.91    106.72   122.34   
 138.00   156.68   177.21   201.10   226.52   253.95   283.29   312.69   344.04   374.72   
 404.81   433.73   460.63   485.72   507.41   526.26   541.22   553.03   560.94   564.85   
 564.64   560.71   553.10   542.22   528.78   513.37   495.73   476.75   455.75   434.23   
 335.64   
981038.31 996393.30 1004295.22 1006625.58 1003857.83 994839.39 977143.47 939524.28 872941.05 776444.19 
 662481.46 547599.50 441393.34 349484.37 277898.62 231571.19 185435.10 154930.64 130044.55 110111.85 
 93513.77 79523.96 68461.96 59019.53 50910.11 43667.05 37450.86 31901.35 27589.93 24666.66 
 21753.53 19840.56 18288.40 16943.78 15839.83 14878.48 14025.65 13259.65 12576.86 11930.80 
 11368.78 10850.47 10349.55 9938.76  9563.45  9198.63  8855.17  8517.16  8158.65  7800.99  
 7451.21  7124.64  6802.27  6481.93  6163.50  5857.91  5578.62  5305.88  5040.19  4760.16  
 4488.89  4219.28  3960.99  3697.95  3448.91  3205.39  2971.11  2748.29  2530.84  2313.48  
 2105.23  1898.24  1707.66  1528.50  1360.80  1198.49  1043.36  893.73   760.76   642.59   
 534.22   435.57   353.15   294.14   235.13   176.38   137.46   103.46   71.76    39.84    
 13.53    3.66     2.41     1.87     1.83     1.77     1.64     1.48     1.49     1.52     
 1.54     1.57     1.63     1.67     1.72     1.79     1.85     1.93     2.02     2.11     
 2.20     2.30     2.41     2.54     2.66     2.78     2.95     3.10     3.24     3.36     
 3.49     3.62     3.77     3.90     4.05     4.21     4.37     4.55     4.73     4.92     
 5.12     5.33     5.57     5.83     6.13     6.46     6.83     7.30     7.83     8.40     
 9.08     9.86     10.76    11.86    13.09    14.60    16.39    18.44    20.88    23.70    
 26.88    30.34    34.18    38.31    42.76    47.49    52.54    58.02    63.90    69.92    
 76.24    82.80    89.36    96.16    102.86   109.68   116.46   124.70   132.07   139.89   
 147.84   156.20   164.89   173.91   183.31   193.34   204.53   216.96   231.45   246.92   
 335.64   
981038.31 995367.38 1002829.46 1004743.48 1001422.56 992325.86 972500.10 931352.27 861326.59 759854.39 
 645192.11 530869.67 432303.15 351669.79 287206.01 237002.73 198950.16 169692.30 145588.28 125315.87 
 110865.30 96467.83 82070.36 71628.61 61821.92 53394.26 45999.79 39664.35 34358.37 30018.59 
 26674.57 24122.47 22122.12 20531.38 19269.53 18214.80 17339.65 16560.58 15908.98 15339.67 
 14839.19 14358.27 13915.33 13510.55 13140.16 12804.11 12445.65 12075.65 11720.70 11324.22 
 10981.35 10638.88 10294.27 9971.49  9645.46  9318.25  9008.66  8702.30  8394.43  8083.48  
 7742.17  7402.34  7082.27  6768.90  6446.41  6123.83  5820.80  5517.56  5215.09  4914.15  
 4616.68  4329.61  4050.67  3759.54  3492.04  3233.19  2987.85  2731.89  2489.64  2268.22  
 2061.56  1874.96  1694.29  1526.02  1368.87  1226.01  1110.61  995.47   880.33   792.85   
 712.87   646.09   592.39   548.18   504.37   462.94   426.38   394.14   365.34   338.91   
 314.33   293.89   276.70   261.86   247.53   233.17   219.62   206.91   194.87   182.79   
 169.81   156.36   141.88   126.73   108.91   91.07    74.29    60.21    49.64    41.30    
 35.39    29.94    15.87    4.45     3.22     3.25     3.35     3.48     3.60     3.72     
 3.85     3.99     4.14     4.33     4.54     4.78     5.05     5.35     5.72     6.17     
 6.68     7.27     8.00     8.89     9.95     11.22    12.83    14.71    17.10    19.95    
 23.11    26.60    30.60    34.83    39.20    43.69    49.00    54.55    60.25    66.29    
 72.54    79.05    85.60    92.42    99.19    106.19   113.30   120.62   128.04   135.67   
 143.54   151.67   161.45   169.70   179.06   190.03   202.15   215.31   231.71   248.24   
 335.64   
981038.31 994320.06 1001156.30 1003312.85 1001197.89 993719.57 975987.90 939164.50 870980.90 771360.18 
 651108.40 539507.11 445069.33 368789.83 307400.91 269153.10 230905.25 192826.40 168269.74 147725.35 
 130562.00 115861.51 103103.15 91224.65 80032.77 70026.48 61346.34 53599.81 46888.26 41366.28 
 36567.58 32512.95 29103.55 26261.71 24225.93 22196.79 20752.23 19611.19 18703.12 17993.93 
 17359.37 16777.49 16233.37 15739.22 15273.65 14831.76 14392.63 13991.21 13597.88 13200.79 
 12780.89 12365.90 11971.45 11608.07 11234.50 10872.00 10528.53 10186.31 9852.74  9528.86  
 9205.29  8874.77  8515.17  8152.74  7780.97  7419.45  7058.84  6710.62  6360.43  6040.95  
 5695.74  5337.20  4966.40  4606.69  4267.33  3944.05  3631.26  3329.81  3036.10  2776.72  
 2517.34  2258.30  2028.21  1818.47  1625.75  1453.33  1300.12  1167.31  1055.20  960.20   
 875.52   803.27   748.33   702.25   654.32   608.84   569.17   533.67   502.47   474.28   
 451.05   431.06   412.94   397.67   383.92   370.81   359.12   347.65   337.19   327.89   
 318.70   310.60   303.60   297.48   291.27   284.91   279.72   274.44   268.87   263.80   
 258.59   254.02   248.01   240.58   233.09   225.62   219.88   213.33   205.42   195.01   
 182.83   166.56   144.10   113.54   74.67    43.93    27.72    17.81    7.23     4.44     
 4.78     5.30     5.90     6.61     7.46     8.61     9.96     11.67    13.68    16.15    
 18.98    22.20    25.88    29.99    34.51    39.43    44.79    50.60    56.88    63.55    
 70.47    77.53    84.58    91.81    98.84    105.93   112.91   120.40   127.88   135.39   
 142.96   150.90   159.73   168.77   178.45   189.15   201.33   215.03   230.46   248.02   
 335.64   
981038.31 990762.11 995187.91 996542.40 995115.09 987316.18 962396.27 908349.55 823352.64 715223.76 
 601726.77 502192.60 420323.25 353237.29 299473.56 256728.65 222590.92 195902.97 174288.93 155321.10 
 139208.93 125566.68 113530.54 101508.15 89485.77 79717.80 70577.05 62700.83 55707.09 49756.24 
 44423.70 39747.97 35512.38 31745.94 28611.82 26095.92 24050.65 22412.74 21115.32 20033.74 
 19136.34 18318.21 17574.43 16897.23 16305.93 15800.68 15319.43 14853.90 14415.66 13969.87 
 13552.33 13145.49 12746.49 12339.82 11956.33 11598.46 11240.81 10883.16 10524.75 10136.83 
 9725.07  9307.97  8910.50  8505.38  8100.18  7687.12  7287.74  6900.67  6530.61  6147.33  
 5761.57  5371.08  4982.00  4591.88  4244.15  3899.98  3558.98  3224.29  2915.21  2628.37  
 2355.48  2117.71  1885.73  1676.40  1494.54  1332.58  1188.49  1076.90  965.62   880.19   
 805.86   746.07   703.63   661.45   619.36   583.94   553.16   526.23   503.61   481.70   
 463.91   447.84   433.57   421.48   410.54   400.50   391.00   382.41   375.10   368.02   
 360.00   353.29   347.94   341.50   336.03   330.90   327.05   322.67   319.12   315.24   
 311.74   307.73   304.14   300.30   297.81   294.57   291.67   288.09   284.26   281.14   
 276.58   272.44   268.38   263.73   258.32   252.73   245.70   238.57   228.82   216.67   
 203.14   183.40   156.15   94.70    32.92    18.62    13.57    11.03    12.20    14.62    
 17.52    20.80    24.62    28.91    33.65    38.65    44.27    50.34    56.76    63.86    
 71.77    79.91    88.55    97.99    107.63   117.39   126.73   135.69   144.09   151.96   
