IESNA:LM-63-2002
[TEST] 1
[TESTLAB] AOK
[TESTDATE] 2022-06-09
[ISSUEDATE] 2022-06-10 09:02:20
[NEARFIELD] 
[LAMPPOSITION] 0,0
[OTHER] EVERFINE GO-2000A_V1 SYSTEM
[MANUFAC] AOK
[LUMCAT] A
[LUMINAIRE] AOK-400WiSF-HV-S35-00-5070-2030D-P
[LAMPCAT] B
[LAMP] 3535
[BALLAST] E
[BALLASTCAT] F
[OTHER] 
[OTHER] Gamma(deg)    Fz(lm)      Ft(lm)     %Lum    %Lamp
[OTHER]   0- 10     16908.45    16908.45    31.83    31.83
[OTHER]  10- 20     18351.68    35260.13    66.38    66.38
[OTHER]  20- 30      7312.53    42572.66    80.14    80.14
[OTHER]  30- 40      3751.21    46323.87    87.20    87.20
[OTHER]  40- 50      2373.93    48697.80    91.67    91.67
[OTHER]  50- 60      1834.18    50531.99    95.13    95.13
[OTHER]  60- 70      1242.84    51774.83    97.47    97.47
[OTHER]  70- 80       588.00    52362.83    98.57    98.57
[OTHER]  80- 90       239.43    52602.27    99.02    99.02
[OTHER]  90-100       128.81    52731.08    99.27    99.27
[OTHER] 100-110        93.53    52824.61    99.44    99.44
[OTHER] 110-120        76.17    52900.78    99.58    99.58
[OTHER] 120-130        57.97    52958.75    99.69    99.69
[OTHER] 130-140        42.50    53001.25    99.77    99.77
[OTHER] 140-150        35.81    53037.06    99.84    99.84
[OTHER] 150-160        39.25    53076.31    99.92    99.92
[OTHER] 160-170        32.90    53109.21    99.98    99.98
[OTHER] 170-180        12.08    53121.29   100.00   100.00
[OTHER] 
TILT=NONE
1 53121 1 181 25 1 2 0.150 0.200 0.000
1.000 1 409.88
0.0    1.0    2.0    3.0    4.0    5.0    6.0    7.0    8.0    9.0    
 10.0   11.0   12.0   13.0   14.0   15.0   16.0   17.0   18.0   19.0   
 20.0   21.0   22.0   23.0   24.0   25.0   26.0   27.0   28.0   29.0   
 30.0   31.0   32.0   33.0   34.0   35.0   36.0   37.0   38.0   39.0   
 40.0   41.0   42.0   43.0   44.0   45.0   46.0   47.0   48.0   49.0   
 50.0   51.0   52.0   53.0   54.0   55.0   56.0   57.0   58.0   59.0   
 60.0   61.0   62.0   63.0   64.0   65.0   66.0   67.0   68.0   69.0   
 70.0   71.0   72.0   73.0   74.0   75.0   76.0   77.0   78.0   79.0   
 80.0   81.0   82.0   83.0   84.0   85.0   86.0   87.0   88.0   89.0   
 90.0   91.0   92.0   93.0   94.0   95.0   96.0   97.0   98.0   99.0   
 100.0  101.0  102.0  103.0  104.0  105.0  106.0  107.0  108.0  109.0  
 110.0  111.0  112.0  113.0  114.0  115.0  116.0  117.0  118.0  119.0  
 120.0  121.0  122.0  123.0  124.0  125.0  126.0  127.0  128.0  129.0  
 130.0  131.0  132.0  133.0  134.0  135.0  136.0  137.0  138.0  139.0  
 140.0  141.0  142.0  143.0  144.0  145.0  146.0  147.0  148.0  149.0  
 150.0  151.0  152.0  153.0  154.0  155.0  156.0  157.0  158.0  159.0  
 160.0  161.0  162.0  163.0  164.0  165.0  166.0  167.0  168.0  169.0  
 170.0  171.0  172.0  173.0  174.0  175.0  176.0  177.0  178.0  179.0  
 180.0  
0.0    15.0   30.0   45.0   60.0   75.0   90.0   105.0  120.0  135.0  
 150.0  165.0  180.0  195.0  210.0  225.0  240.0  255.0  270.0  285.0  
 300.0  315.0  330.0  345.0  360.0  
229073.89 227947.02 225161.20 219410.07 206566.53 167719.51 137088.93 108511.67 75459.17 55526.31 
 34134.32 24721.53 14578.11 9743.04  4966.05  189.05   99.19    57.01    45.14    34.62    
 29.04    24.33    20.27    17.78    15.56    14.33    13.17    11.62    10.49    9.86     
 9.45     9.16     8.84     8.18     7.11     6.25     5.88     5.75     5.66     5.53     
 5.66     5.71     5.61     5.16     5.03     4.78     4.76     4.98     5.10     4.98     
 4.72     4.52     4.45     4.42     4.38     4.38     4.40     4.23     4.12     4.01     
 3.89     3.82     3.68     3.51     3.39     3.27     3.15     3.00     2.89     2.79     
 2.71     2.63     2.57     2.51     2.47     2.44     2.44     2.44     2.43     2.44     
 2.48     2.51     2.55     2.61     2.73     2.93     3.07     3.18     3.28     3.35     
 3.42     3.48     3.57     3.62     3.63     3.63     3.67     3.74     3.83     3.97     
 4.14     4.32     4.53     4.77     5.02     5.30     5.57     5.85     6.14     6.41     
 6.67     6.94     7.20     7.46     7.73     8.01     8.33     8.68     9.06     9.47     
 9.89     10.34    10.83    11.32    11.82    12.38    12.99    13.61    14.26    14.94    
 15.63    16.37    17.12    17.88    18.68    19.57    20.58    21.78    23.21    24.83    
 26.66    28.73    31.01    33.70    36.72    40.15    44.06    48.51    53.68    59.99    
 67.50    76.05    85.59    95.82    106.28   117.18   129.00   141.23   153.14   164.58   
 175.52   186.15   195.99   204.07   210.28   214.55   216.78   216.94   215.24   211.86   
 207.17   201.20   194.27   186.73   178.85   170.47   162.06   153.36   143.79   134.01   
 122.94   
229073.89 228949.58 226889.25 222680.62 215468.22 187904.85 151732.74 125931.07 97374.18 66751.75 
 52416.57 42106.26 31795.94 21485.62 11175.31 959.04   920.19   729.41   534.69   339.98   
 146.94   172.62   176.84   119.14   124.06   122.68   102.50   62.33    57.91    39.15    
 25.33    18.11    15.50    13.42    11.85    9.92     8.36     7.24     6.57     5.96     
 5.57     5.31     5.26     5.28     5.22     5.01     4.80     4.64     4.48     4.29     
 4.07     3.90     3.80     3.62     3.50     3.40     3.28     3.17     3.05     2.94     
 2.86     2.77     2.69     2.59     2.54     2.48     2.42     2.38     2.36     2.32     
 2.29     2.23     2.18     2.13     2.10     2.09     2.08     2.07     2.06     2.05     
 2.06     2.08     2.11     2.14     2.19     2.25     2.32     2.38     2.46     2.52     
 2.60     2.69     2.78     2.88     2.98     3.10     3.23     3.37     3.54     3.71     
 3.89     4.08     4.30     4.54     4.78     5.04     5.30     5.55     5.81     6.07     
 6.32     6.58     6.85     7.13     7.42     7.73     8.07     8.42     8.80     9.21     
 9.66     10.15    10.66    11.16    11.70    12.26    12.86    13.50    14.14    14.82    
 15.51    16.22    16.95    17.72    18.54    19.52    20.65    21.94    23.42    25.13    
 27.10    29.28    31.70    34.39    37.43    40.96    44.94    49.61    55.01    61.40    
 68.77    77.14    86.19    96.22    106.80   117.89   129.22   140.50   152.11   163.37   
 174.28   184.70   193.78   201.50   207.20   210.87   212.58   212.38   210.37   206.87   
 202.07   196.09   189.38   182.07   174.36   166.84   157.61   148.17   138.94   129.69   
 122.94   
229073.89 229356.22 227764.14 224877.44 219961.91 210074.43 177494.60 148010.16 122326.31 97261.40 
 67727.19 54467.64 34601.88 26824.40 16413.06 6494.80  3833.40  1245.78  1100.29  985.29   
 804.02   463.66   295.96   249.04   252.30   210.18   191.68   145.16   117.47   90.02    
 79.46    74.79    59.46    48.60    42.53    36.74    32.76    27.07    24.22    20.94    
 18.12    15.53    14.33    13.80    12.91    11.60    10.93    9.89     9.29     8.49     
 7.76     7.12     6.47     5.63     5.13     4.85     4.66     4.44     4.15     3.88     
 3.63     3.38     3.19     3.07     2.97     2.85     2.70     2.55     2.42     2.33     
 2.24     2.18     2.13     2.09     2.05     2.02     1.98     1.94     1.90     1.88     
 1.86     1.86     1.86     1.89     1.95     2.01     2.09     2.16     2.26     2.34     
 2.44     2.55     2.67     2.80     2.95     3.09     3.25     3.43     3.60     3.77     
 3.96     4.15     4.34     4.54     4.74     4.96     5.19     5.42     5.65     5.90     
 6.17     6.46     6.75     7.06     7.39     7.72     8.07     8.44     8.82     9.23     
 9.64     10.07    10.54    11.01    11.50    11.99    12.50    13.08    13.68    14.33    
 15.03    15.80    16.69    17.68    18.83    20.16    21.66    23.28    25.14    27.19    
 29.43    31.97    34.90    38.20    41.88    46.01    50.72    56.18    62.36    69.22    
 76.77    84.96    93.78    103.09   112.96   123.08   133.36   143.84   154.36   164.55   
 173.93   182.35   189.44   195.04   199.14   201.57   202.41   201.69   199.61   196.23   
 191.69   186.84   180.86   174.12   167.16   159.70   151.79   143.67   136.02   128.74   
 122.94   
229073.89 230168.54 229383.33 227753.29 224975.17 219221.16 210800.74 188774.72 157551.63 135735.34 
 112954.44 93391.42 68097.08 52609.03 42775.65 33204.45 23633.25 14113.95 9925.53  5737.11  
 1579.22  1389.83  965.82   662.87   462.34   361.40   272.80   184.62   140.16   113.57   
 96.29    83.71    74.04    66.08    59.41    52.93    47.42    42.63    38.01    34.13    
 30.66    27.71    25.12    22.49    19.72    16.63    14.65    13.20    12.11    11.19    
 10.38    9.67     9.05     8.45     7.80     7.30     6.86     6.48     6.12     5.79     
 5.50     5.23     4.95     4.68     4.44     4.25     4.06     3.88     3.69     3.50     
 3.30     3.09     2.89     2.71     2.56     2.42     2.28     2.15     2.05     1.94     
 1.82     1.74     1.74     1.76     1.80     1.86     1.93     2.02     2.10     2.20     
 2.30     2.42     2.53     2.66     2.79     2.93     3.08     3.24     3.40     3.56     
 3.73     3.91     4.10     4.31     4.53     4.74     4.96     5.20     5.45     5.70     
 5.96     6.23     6.53     6.82     7.12     7.43     7.75     8.07     8.40     8.75     
 9.13     9.53     9.95     10.39    10.88    11.41    11.98    12.63    13.34    14.13    
 15.03    16.05    17.17    18.41    19.78    21.34    23.04    24.96    27.06    29.41    
 32.15    35.11    38.49    42.28    46.55    51.37    56.62    62.42    68.68    75.64    
 83.05    91.03    99.23    108.11   117.13   126.35   135.56   144.27   152.88   160.84   
 168.00   174.27   179.49   183.71   186.71   188.60   189.31   188.94   187.76   185.03   
 181.42   177.43   173.07   168.07   162.76   157.04   150.67   144.39   138.69   133.12   
 122.94   
229073.89 230226.16 230051.75 228568.04 225489.16 219619.87 211403.22 203430.82 194331.37 181365.93 
 161310.78 134723.37 113529.33 97642.39 80704.49 66631.38 55384.79 40310.81 30544.62 24244.25 
 18048.93 11544.86 9045.29  6591.75  4962.89  4123.85  1561.32  1211.31  884.13   556.95   
 401.00   296.17   224.49   183.13   152.00   128.30   109.84   91.44    78.56    67.06    
 57.78    50.02    43.73    38.69    34.45    30.80    27.98    25.41    23.30    21.36    
 19.40    17.72    15.98    14.18    12.39    10.86    9.93     9.30     8.71     8.22     
 7.88     7.60     7.36     7.10     6.88     6.68     6.49     6.33     6.17     6.00     
 5.85     5.68     5.50     5.29     5.01     4.73     4.39     4.02     3.64     3.24     
 2.86     2.44     2.05     1.93     1.93     1.95     2.02     2.10     2.18     2.26     
 2.36     2.46     2.57     2.70     2.83     2.96     3.12     3.28     3.45     3.62     
 3.81     4.01     4.22     4.43     4.65     4.89     5.13     5.38     5.61     5.87     
 6.13     6.39     6.67     6.95     7.24     7.54     7.84     8.16     8.51     8.87     
 9.25     9.65     10.10    10.60    11.12    11.71    12.37    13.13    13.95    14.86    
 15.86    16.91    18.10    19.41    20.87    22.52    24.45    26.57    29.01    31.75    
 34.85    38.31    42.29    46.77    51.66    56.99    62.65    68.73    75.36    82.30    
 89.49    96.93    104.61   112.42   120.33   127.99   135.40   142.57   149.36   155.52   
 161.07   165.92   170.00   173.28   175.85   177.50   178.33   179.00   178.32   176.85   
 174.70   171.72   168.42   164.77   161.03   156.80   152.31   147.65   143.14   138.14   
 122.94   
229073.89 230161.07 230404.53 229491.15 226321.21 220574.85 213014.47 205765.67 196612.16 187216.05 
 177047.90 166665.22 153494.23 139953.47 125641.00 111109.86 96645.80 82126.61 69310.35 56267.68 
 44966.16 34179.60 28414.71 22671.20 19468.32 16874.61 14262.52 11729.42 10328.94 8939.85  
 7760.15  6283.40  4927.59  3975.60  3268.41  2710.89  2154.17  1689.73  1391.01  1171.81  
 971.42   782.79   638.15   511.78   403.79   321.50   270.28   219.07   167.97   130.39   
 104.12   84.15    69.19    58.36    49.49    42.87    37.76    33.46    30.01    27.17    
 24.84    22.99    21.60    20.35    19.13    18.08    16.93    15.89    14.72    13.88    
 13.55    13.30    13.12    12.98    12.83    12.63    12.44    12.22    11.97    11.47    
 10.39    8.75     6.60     4.17     1.68     1.59     1.64     1.69     1.76     1.83     
 1.89     1.97     2.05     2.15     2.26     2.37     2.49     2.63     2.77     2.93     
 3.11     3.27     3.45     3.65     3.86     4.07     4.29     4.52     4.76     5.01     
 5.26     5.53     5.80     6.08     6.37     6.67     6.98     7.29     7.62     7.97     
 8.35     8.77     9.24     9.74     10.27    10.85    11.49    12.20    12.99    13.82    
 14.78    15.83    16.98    18.25    19.73    21.39    23.31    25.54    28.03    30.90    
 34.25    37.96    42.10    46.67    51.62    57.03    62.76    68.76    75.05    81.64    
 88.33    95.23    101.92   108.83   115.62   122.30   128.91   135.17   141.35   147.09   
 152.51   157.49   161.96   166.16   169.71   172.71   175.44   177.12   177.95   178.08   
 177.48   176.23   174.28   171.57   168.33   164.85   161.04   156.71   151.85   146.78   
 122.94   
229073.89 229667.84 229606.32 228654.58 225803.44 220389.10 213132.32 206007.47 197894.85 188810.02 
 179467.59 169458.93 158648.04 147104.48 133395.68 117449.99 100173.93 84716.32 71574.75 60231.90 
 50305.14 42467.92 36387.77 31729.99 27961.87 25023.81 22093.21 19792.33 17992.06 16341.02 
 14745.62 13135.18 11680.21 10327.48 9036.90  7878.42  6830.72  6036.90  5426.66  4891.66  
 4482.71  4174.86  3914.23  3656.95  3453.95  3316.35  3173.43  3051.70  2910.40  2722.70  
 2535.00  2347.19  2151.57  1972.60  1812.14  1664.94  1524.03  1403.64  1288.81  1172.22  
 1075.40  980.05   894.05   814.79   739.90   671.76   606.12   546.92   491.27   440.03   
 393.04   348.31   310.72   274.25   241.68   209.18   182.35   158.55   138.66   121.25   
 105.04   90.90    78.84    68.04    58.01    29.07    19.99    15.31    8.43     3.72     
 1.69     1.41     1.32     1.24     1.16     1.08     0.99     0.91     0.91     0.92     
 0.93     0.94     0.94     0.95     0.95     0.96     0.98     1.01     1.04     1.07     
 1.10     1.13     1.17     1.21     1.24     1.29     1.32     1.36     1.41     1.46     
 1.52     1.58     1.66     1.73     1.82     1.91     2.03     2.15     2.28     2.43     
 2.59     2.78     2.98     3.22     3.48     3.80     4.15     4.57     5.05     5.60     
 6.20     6.87     7.60     8.43     9.34     10.32    11.39    12.52    13.69    14.92    
 16.19    17.49    18.86    20.25    21.69    23.18    24.76    26.43    28.25    30.12    
 32.07    34.17    36.31    38.63    41.09    43.81    46.79    50.58    54.34    58.37    
 63.24    68.46    74.33    80.71    87.36    94.32    101.35   108.24   115.17   122.00   
 122.94   
229073.89 229680.46 229449.52 228170.31 225263.24 220500.94 213590.15 206426.82 198900.23 190589.12 
 180841.75 170453.34 158374.34 145573.99 131647.81 117205.71 102473.54 88079.63 74677.74 62419.45 
 52016.63 44280.79 38445.70 34249.14 30541.66 27455.06 25261.73 23324.28 21469.69 19694.37 
 18049.30 16354.44 14721.92 13148.87 11658.81 10387.71 9118.41  8084.19  7266.06  6615.08  
 6097.79  5695.15  5354.86  5077.63  4851.11  4662.46  4480.50  4319.31  4172.63  4036.83  
 3909.82  3775.37  3632.90  3476.02  3303.50  3129.24  2945.01  2761.89  2595.91  2432.86  
 2281.78  2145.12  2018.93  1900.00  1789.89  1677.48  1571.41  1469.78  1371.37  1273.39  
 1182.98  1098.43  1013.92  933.77   856.82   788.31   725.01   662.70   604.86   551.73   
 502.80   458.02   415.77   379.25   346.57   315.60   288.58   266.36   247.52   231.12   
 216.15   200.67   187.56   175.57   164.84   154.32   145.01   137.09   129.39   122.20   
 115.01   108.53   103.43   98.60    93.89    90.19    86.57    82.61    79.63    77.02    
 74.05    71.55    69.10    66.13    63.40    60.87    57.89    55.49    53.08    50.67    
 48.21    45.56    43.15    40.67    37.78    34.85    31.55    28.13    24.14    19.60    
 14.72    10.41    7.79     5.97     4.60     3.36     3.05     3.20     3.58     4.03     
 4.54     5.10     5.71     6.44     7.25     8.13     9.06     10.03    11.08    12.17    
 13.30    14.43    15.60    16.81    18.01    19.24    20.55    21.87    23.23    24.66    
 26.17    27.76    29.43    31.25    33.18    35.31    37.68    40.43    43.71    48.18    
 52.75    57.55    64.34    71.16    78.57    86.66    94.98    103.35   111.62   119.93   
 122.94   
229073.89 229556.98 228883.11 227239.48 224531.10 220682.57 215305.29 208685.05 200780.98 190533.41 
 178358.52 164085.14 148930.80 133290.63 118411.45 104525.48 91360.89 78521.49 67248.70 57736.34 
 50020.27 43758.38 39060.92 35234.33 32057.42 29409.65 27049.70 24811.90 22575.29 20434.86 
 18388.94 16379.37 14419.01 12595.06 11052.68 9673.22  8555.26  7658.47  6967.68  6478.36  
 6113.17  5822.45  5589.00  5384.95  5212.50  5054.40  4898.43  4754.59  4627.07  4502.03  
 4383.81  4270.73  4155.92  4029.86  3896.09  3743.97  3588.17  3423.84  3243.22  3065.45  
 2893.13  2744.65  2594.85  2445.20  2307.99  2169.91  2033.44  1902.57  1771.33  1648.43  
 1524.68  1404.76  1294.32  1192.93  1095.81  1001.64  908.42   823.47   745.49   674.88   
 607.98   546.72   492.41   445.99   404.71   370.48   342.71   319.17   298.68   281.46   
 266.21   251.47   236.72   222.01   211.03   201.38   192.04   183.66   175.80   168.39   
 162.33   156.23   150.70   145.61   141.23   136.83   133.05   129.54   126.18   123.14   
 120.34   118.00   115.54   112.86   110.59   108.30   106.17   103.95   101.97   99.95    
 97.93    96.22    94.62    92.56    90.57    88.68    86.58    84.47    82.53    80.54    
 78.84    76.57    74.72    72.82    70.83    68.76    66.26    63.65    60.91    58.00    
 54.67    50.94    47.81    44.74    41.10    37.18    34.45    17.60    11.99    10.24    
 10.55    11.67    13.02    14.41    15.85    17.31    18.79    20.29    21.82    23.38    
 24.93    26.46    28.04    29.72    31.47    33.33    35.37    37.61    40.13    43.10    
 46.86    51.57    57.66    64.33    72.03    80.27    89.85    99.49    109.68   119.58   
 122.94   
229073.89 228925.42 227276.53 224807.40 221499.86 217176.21 211224.11 202052.47 189326.83 172914.16 
 154290.21 135410.56 118246.94 103454.63 91393.82 80718.77 72093.15 64175.19 57082.68 51037.26 
 45793.04 41402.80 37311.62 33498.79 29786.82 26316.11 22882.81 19624.31 16724.12 14181.66 
 12229.12 11035.12 9848.07  9147.76  8608.28  8137.25  7739.10  7386.69  7042.77  6743.44  
 6455.33  6180.09  5931.71  5712.33  5501.18  5316.87  5147.97  4985.19  4825.65  4659.74  
 4481.48  4334.94  4213.06  4091.81  3972.16  3831.37  3692.38  3552.22  3408.44  3265.84  
 3114.05  2962.61  2818.33  2674.92  2535.91  2386.97  2246.71  2101.34  1961.92  1817.36  
 1671.55  1547.32  1426.38  1303.94  1185.08  1080.83  976.72   876.42   790.69   713.51   
 643.37   577.80   520.28   470.14   429.71   396.60   367.29   341.58   320.25   303.68   
 288.62   273.44   259.60   247.74   237.07   228.14   220.41   213.77   208.12   202.91   
 198.27   193.93   190.19   186.64   183.55   180.56   177.75   175.53   173.10   170.93   
 168.72   166.64   164.34   162.39   160.31   158.35   156.40   154.54   152.76   150.90   
 148.78   146.44   144.10   141.50   139.28   137.24   135.12   132.56   130.14   127.10   
 124.05   121.43   118.58   115.91   112.89   110.04   107.36   104.52   101.51   98.75    
 95.76    92.49    90.04    87.53    84.99    82.77    78.28    75.08    72.13    68.48    
 65.09    58.60    54.69    52.56    50.57    29.79    21.38    20.48    22.19    22.99    
 23.53    25.25    27.30    29.51    31.75    34.07    36.27    38.50    41.04    43.78    
 46.90    50.67    55.25    60.80    67.26    75.01    84.82    95.53    106.67   117.52   
