IESNA:LM-63-2002
[TEST] 1
[TESTLAB] AOK
[TESTDATE] 2022-05-31
[ISSUEDATE] 2022-05-31 18:55:53
[NEARFIELD] 
[LAMPPOSITION] 0,0
[OTHER] EVERFINE GO-2000A_V1 SYSTEM
[MANUFAC] AOK
[LUMCAT] A
[LUMINAIRE] AOK-1200WiSF-HV-S5-00-5070-3585D-P
[LAMPCAT] B
[LAMP] 5050
[BALLAST] E
[BALLASTCAT] F
[OTHER] 
[OTHER] Gamma(deg)    Fz(lm)      Ft(lm)     %Lum    %Lamp
[OTHER]   0- 10     12543.87    12543.87     7.55     7.55
[OTHER]  10- 20     28239.46    40783.33    24.53    24.53
[OTHER]  20- 30     32624.45    73407.78    44.16    44.16
[OTHER]  30- 40     31282.78   104690.56    62.98    62.98
[OTHER]  40- 50     25589.70   130280.26    78.37    78.37
[OTHER]  50- 60     18253.42   148533.69    89.36    89.36
[OTHER]  60- 70     10301.37   158835.06    95.55    95.55
[OTHER]  70- 80      4463.58   163298.64    98.24    98.24
[OTHER]  80- 90      1492.25   164790.88    99.14    99.14
[OTHER]  90-100       553.49   165344.37    99.47    99.47
[OTHER] 100-110       265.45   165609.83    99.63    99.63
[OTHER] 110-120       182.80   165792.62    99.74    99.74
[OTHER] 120-130       135.39   165928.01    99.82    99.82
[OTHER] 130-140       102.27   166030.28    99.88    99.88
[OTHER] 140-150        77.44   166107.72    99.93    99.93
[OTHER] 150-160        59.20   166166.91    99.96    99.96
[OTHER] 160-170        43.92   166210.84    99.99    99.99
[OTHER] 170-180        16.14   166226.98   100.00   100.00
[OTHER] 
TILT=NONE
1 1.6623e+005 1 181 25 1 2 0.150 0.200 0.000
1.000 1 1203.93
0.0    1.0    2.0    3.0    4.0    5.0    6.0    7.0    8.0    9.0    
 10.0   11.0   12.0   13.0   14.0   15.0   16.0   17.0   18.0   19.0   
 20.0   21.0   22.0   23.0   24.0   25.0   26.0   27.0   28.0   29.0   
 30.0   31.0   32.0   33.0   34.0   35.0   36.0   37.0   38.0   39.0   
 40.0   41.0   42.0   43.0   44.0   45.0   46.0   47.0   48.0   49.0   
 50.0   51.0   52.0   53.0   54.0   55.0   56.0   57.0   58.0   59.0   
 60.0   61.0   62.0   63.0   64.0   65.0   66.0   67.0   68.0   69.0   
 70.0   71.0   72.0   73.0   74.0   75.0   76.0   77.0   78.0   79.0   
 80.0   81.0   82.0   83.0   84.0   85.0   86.0   87.0   88.0   89.0   
 90.0   91.0   92.0   93.0   94.0   95.0   96.0   97.0   98.0   99.0   
 100.0  101.0  102.0  103.0  104.0  105.0  106.0  107.0  108.0  109.0  
 110.0  111.0  112.0  113.0  114.0  115.0  116.0  117.0  118.0  119.0  
 120.0  121.0  122.0  123.0  124.0  125.0  126.0  127.0  128.0  129.0  
 130.0  131.0  132.0  133.0  134.0  135.0  136.0  137.0  138.0  139.0  
 140.0  141.0  142.0  143.0  144.0  145.0  146.0  147.0  148.0  149.0  
 150.0  151.0  152.0  153.0  154.0  155.0  156.0  157.0  158.0  159.0  
 160.0  161.0  162.0  163.0  164.0  165.0  166.0  167.0  168.0  169.0  
 170.0  171.0  172.0  173.0  174.0  175.0  176.0  177.0  178.0  179.0  
 180.0  
0.0    15.0   30.0   45.0   60.0   75.0   90.0   105.0  120.0  135.0  
 150.0  165.0  180.0  195.0  210.0  225.0  240.0  255.0  270.0  285.0  
 300.0  315.0  330.0  345.0  360.0  
135415.72 130567.10 127859.56 125669.98 115269.57 105641.93 95376.62 80859.22 70605.21 59221.64 
 47958.43 37428.55 33185.80 30702.99 28361.34 26108.11 24039.61 19245.64 16025.10 12342.46 
 9264.29  6193.43  3859.48  1816.33  1357.87  916.78   475.69   34.61    23.06    19.87    
 17.55    15.69    14.73    13.55    12.47    11.67    10.83    10.17    9.68     9.26     
 8.86     8.72     8.51     8.28     8.16     8.01     7.65     7.40     7.10     6.88     
 6.99     7.22     7.38     7.51     7.56     7.54     7.37     7.09     6.86     6.56     
 6.25     5.99     5.81     5.66     5.50     5.38     5.32     5.27     5.23     5.18     
 5.15     5.14     5.13     5.12     5.13     5.13     5.16     5.22     5.30     5.39     
 5.51     5.68     5.89     6.11     6.35     6.62     6.93     7.28     7.65     8.06     
 8.49     8.95     9.46     10.00    10.59    11.24    11.96    12.74    13.60    14.52    
 15.54    16.65    17.82    19.06    20.42    21.85    23.33    24.87    26.47    28.11    
 29.93    31.82    33.75    35.65    37.62    39.72    41.93    44.20    46.53    48.96    
 51.63    54.36    57.17    60.09    63.21    66.35    69.70    73.16    76.77    80.47    
 84.22    88.03    91.96    95.98    99.97    104.04   108.15   112.33   116.62   120.99   
 125.57   130.34   135.38   140.63   145.95   151.44   157.14   163.17   169.51   175.84   
 182.49   189.22   195.80   202.25   208.65   214.84   220.73   226.21   231.14   235.50   
 239.48   243.46   245.83   247.71   248.77   248.82   247.79   245.62   242.49   237.75   
 231.82   225.67   219.72   213.89   207.31   200.19   193.98   184.55   176.28   167.51   
 156.90   
135415.72 130790.36 127521.89 125467.31 121326.25 110251.83 99877.24 89500.15 77704.53 65259.75 
 55087.22 46496.41 36072.18 32373.23 29879.96 27467.74 24514.63 21561.51 18608.55 15668.85 
 12331.58 9098.79  6233.81  4469.30  2625.06  795.25   581.78   368.32   156.42   106.77   
 92.20    69.44    62.75    56.93    39.66    30.36    24.46    20.83    18.93    17.55    
 16.54    15.69    14.71    13.68    12.87    12.30    11.75    11.30    10.85    10.36    
 9.85     9.31     8.60     8.12     7.69     7.40     7.19     7.01     6.89     6.76     
 6.65     6.60     6.47     6.35     6.20     6.07     5.94     5.75     5.59     5.51     
 5.54     5.57     5.65     5.73     5.84     5.84     5.88     5.93     5.95     6.00     
 6.08     6.14     6.23     6.38     6.59     6.83     7.09     7.39     7.73     8.10     
 8.54     9.03     9.52     10.07    10.71    11.41    12.15    12.97    13.91    14.91    
 15.94    17.05    18.23    19.51    20.84    22.23    23.70    25.25    26.89    28.59    
 30.29    32.12    34.07    36.07    38.09    40.23    42.46    44.77    47.15    49.66    
 52.27    55.05    57.99    60.94    63.90    67.03    70.26    73.64    77.05    80.51    
 83.96    87.50    91.11    94.67    98.26    101.95   105.77   109.74   113.75   117.98   
 122.92   127.85   132.68   137.75   143.05   148.69   154.47   160.54   166.74   173.03   
 179.41   185.82   191.98   198.23   204.32   210.00   215.34   219.99   224.34   228.25   
 231.35   234.10   236.64   238.52   238.94   238.55   237.08   234.82   231.21   227.72   
 223.88   219.44   215.05   210.99   205.34   199.40   193.02   186.14   178.51   171.00   
 156.90   
135415.72 131419.85 128324.61 126479.05 124455.53 116537.49 107374.72 97157.69 87293.71 77095.39 
 65884.17 56761.21 47268.63 38516.17 33089.95 30277.03 27805.88 25591.94 23455.18 21424.45 
 17155.97 14391.37 11578.50 9147.66  6721.12  4807.27  3120.32  1286.85  835.88   402.62   
 298.28   217.57   169.62   133.19   114.20   95.40    77.62    65.77    57.50    48.95    
 43.16    38.99    34.93    31.99    29.55    27.61    25.51    23.45    21.84    20.39    
 19.26    18.03    16.50    14.62    13.11    12.33    11.92    11.60    11.17    10.68    
 10.14    9.63     9.16     8.81     8.52     8.27     8.04     7.80     7.59     7.36     
 7.11     6.88     6.67     6.48     6.30     6.14     6.02     5.92     5.87     5.84     
 5.84     5.89     6.06     6.31     6.60     6.95     7.34     7.78     8.24     8.73     
 9.32     9.96     10.67    11.46    12.37    13.32    14.32    15.44    16.64    17.87    
 19.19    20.58    22.01    23.51    25.08    26.73    28.42    30.21    32.07    33.99    
 35.93    38.01    40.18    42.41    44.69    47.08    49.50    51.99    54.60    57.25    
 59.95    62.66    65.50    68.37    71.26    74.11    77.14    80.26    83.40    86.65    
 89.93    93.28    96.75    100.36   104.16   108.11   112.26   116.51   120.89   125.39   
 130.12   135.08   140.20   145.42   150.74   156.17   161.72   167.41   173.00   178.51   
 184.03   189.42   194.60   199.66   204.58   209.14   213.23   216.98   220.56   222.82   
 225.16   227.10   228.58   229.43   229.68   229.23   228.01   226.30   224.35   222.62   
 219.64   217.13   214.11   210.28   205.87   201.00   196.00   189.90   183.67   177.71   
 156.90   
135415.72 132304.39 129479.12 127347.40 125391.44 123077.95 117068.61 108521.07 101667.62 93026.07 
 84583.13 75199.04 67728.50 58434.65 51413.96 44270.00 36847.49 32031.86 29240.65 26939.32 
 24926.24 22913.16 20900.59 18944.41 16207.83 13579.79 10798.29 8602.94  6904.98  5129.96  
 4078.51  2753.51  1434.29  852.06   582.14   419.07   320.60   262.80   205.25   174.82   
 152.01   132.60   115.65   100.29   88.60    77.36    68.14    60.41    53.83    48.68    
 44.23    40.22    36.00    31.09    26.65    23.79    22.78    22.25    21.10    19.27    
 17.15    15.38    14.31    13.57    12.96    12.31    11.75    11.26    10.78    10.31    
 9.88     9.45     9.05     8.68     8.31     7.95     7.59     7.30     7.09     6.94     
 6.91     6.93     7.06     7.35     7.79     8.28     8.82     9.41     10.04    10.74    
 11.50    12.34    13.21    14.18    15.21    16.29    17.43    18.66    19.98    21.35    
 22.76    24.24    25.83    27.51    29.28    31.04    32.88    34.82    36.85    38.92    
 41.02    43.19    45.47    47.81    50.25    52.77    55.38    57.97    60.66    63.47    
 66.41    69.48    72.64    75.76    78.99    82.33    85.83    89.43    93.08    96.85    
 100.72   104.68   108.75   112.90   117.09   121.39   125.79   130.26   134.64   139.14   
 143.87   148.50   153.07   157.69   162.33   166.97   171.51   175.97   180.29   184.45   
 188.57   192.56   196.30   200.02   203.60   206.91   209.96   212.56   214.90   216.89   
 218.53   219.83   220.78   221.32   221.38   221.18   220.88   220.43   219.38   217.89   
 216.12   214.07   211.78   209.27   206.92   204.93   200.50   195.28   189.71   185.16   
 156.90   
135415.72 133502.11 131687.13 129375.89 126935.00 125084.80 123216.18 120905.15 117424.89 110644.06 
 104060.80 98866.18 92712.77 87305.82 80380.38 72789.74 68604.54 62298.84 55341.36 50187.51 
 44578.61 40170.90 34702.12 30284.85 27642.71 25342.36 23313.57 21312.47 19426.37 17658.07 
 15980.44 14381.49 12376.03 10445.65 8516.19  6979.83  5512.77  4588.40  3615.26  2877.07  
 2161.17  1576.43  1125.06  845.22   567.41   440.01   352.55   281.45   227.87   185.93   
 156.95   133.82   115.73   97.70    83.33    72.30    62.51    54.81    50.04    44.55    
 39.90    36.70    33.04    29.67    26.53    24.19    21.24    17.60    15.77    14.82    
 14.11    13.48    13.00    12.34    11.81    11.31    10.77    10.15    9.59     9.10     
 8.76     8.57     8.56     8.91     9.40     10.00    10.66    11.39    12.17    13.00    
 13.90    14.87    15.90    17.04    18.26    19.56    20.94    22.38    23.91    25.55    
 27.28    29.11    31.00    32.96    35.07    37.25    39.47    41.81    44.22    46.69    
 49.23    51.94    54.72    57.57    60.51    63.57    66.68    69.87    73.18    76.60    
 80.07    83.63    87.30    91.06    94.83    98.58    102.51   106.58   110.64   114.65   
 118.71   122.74   126.84   130.95   135.00   139.03   143.15   147.32   151.45   155.57   
 159.57   163.51   167.50   171.49   175.44   179.21   182.92   186.45   189.73   192.63   
 195.46   198.08   200.44   202.56   204.62   206.45   208.11   209.62   211.04   212.20   
 213.21   214.21   215.07   215.74   216.40   217.02   218.04   217.85   217.07   215.96   
 214.94   213.87   213.06   212.92   211.42   208.96   206.28   202.92   199.11   195.25   
 156.90   
135415.72 134796.62 134217.78 132904.89 130794.33 128981.12 126982.11 125049.34 123136.48 121114.06 
 119188.92 117263.84 115342.05 112893.75 110702.46 108550.64 105199.99 101192.44 96347.11 92767.32 
 89434.14 85532.05 81522.74 77247.12 73214.85 69437.43 64603.50 60253.48 56131.78 52329.42 
 49005.18 45065.34 41209.46 37641.00 34496.40 31345.71 28393.02 25850.43 23307.83 20768.73 
 18596.78 16816.57 15195.77 13698.07 12301.76 10910.95 9613.55  8452.29  7356.44  6261.16  
 5227.56  4220.62  3364.78  2699.94  2037.14  1638.24  1338.56  1096.60  879.90   703.87   
 550.35   427.02   332.03   277.13   222.23   167.49   132.94   106.81   86.33    70.27    
 56.66    47.66    41.20    35.61    29.42    24.39    19.90    18.06    16.78    15.19    
 13.40    11.29    9.27     8.18     8.46     8.98     9.54     10.15    10.84    11.58    
 12.41    13.31    14.27    15.33    16.48    17.67    18.93    20.31    21.76    23.28    
 24.86    26.49    28.24    30.13    32.13    34.21    36.38    38.66    41.11    43.65    
 46.28    48.98    51.86    54.78    57.78    60.94    64.13    67.28    70.59    74.00    
 77.59    81.32    85.19    88.89    92.82    96.94    101.04   105.32   109.58   113.80   
 118.15   122.50   126.91   131.06   135.34   139.40   143.59   147.57   151.35   155.16   
 158.02   160.74   164.30   167.73   171.22   174.69   178.00   181.16   184.13   187.02   
 189.83   192.43   194.92   197.34   199.58   201.72   203.76   205.63   207.48   209.14   
 210.72   212.23   213.64   214.99   216.26   217.17   217.94   218.80   220.00   221.98   
 221.99   220.49   218.68   217.85   218.15   217.68   216.03   214.45   211.42   208.50   
 156.90   
135415.72 136066.52 136868.96 136988.33 136297.57 135817.17 134953.57 134011.17 132822.92 131411.13 
 130290.70 128821.61 127556.58 126356.22 124884.91 123414.32 121673.55 119990.64 118475.95 117035.81 
 115105.91 112890.56 110842.26 109110.99 106846.23 104293.60 101662.28 99114.12 96520.72 93492.35 
 90386.04 87396.94 84210.74 80876.63 77874.40 74596.37 71253.22 67794.05 64299.78 61202.94 
 58676.18 55889.94 53072.85 50319.72 47579.56 44932.31 42391.12 39713.38 37290.34 34839.95 
 32435.39 30196.10 28116.88 26102.89 24088.90 22078.22 20374.99 18713.02 17055.58 15477.41 
 14045.61 12794.63 11570.91 10398.09 9355.87  8379.51  7473.52  6607.36  5834.14  5130.98  
 4511.29  3912.88  3372.32  2940.16  2507.99  2076.60  1721.97  1400.28  1126.65  892.51   
 695.54   518.74   378.38   266.61   155.19   71.35    17.97    12.74    10.41    9.16     
 8.73     8.89     8.70     8.22     4.70     4.57     4.83     5.22     5.28     5.12     
 5.36     5.64     6.06     6.64     6.50     6.84     7.41     7.72     7.93     8.55     
 9.18     9.29     9.90     10.61    11.61    12.59    13.21    13.86    14.56    15.32    
 16.13    17.00    17.89    18.86    19.89    20.96    22.07    23.24    24.42    25.67    
 26.96    28.28    29.69    31.10    32.51    33.98    35.60    37.28    38.98    40.74    
 42.59    44.50    46.45    48.52    50.69    53.03    55.41    57.92    60.51    63.16    
 65.83    68.62    71.58    74.67    77.82    81.13    84.84    88.88    93.23    97.69    
 102.21   106.86   111.83   117.16   122.32   127.24   132.07   139.78   143.98   151.11   
 156.00   160.55   162.93   167.22   171.27   174.99   179.24   181.90   184.62   186.81   
 156.90   
135415.72 137486.53 139581.59 141055.89 141864.26 142777.34 143557.78 144440.90 145169.01 145515.63 
 145794.75 146177.38 146500.83 146595.53 146756.48 146966.04 146795.74 146430.26 145934.96 145142.45 
 143767.13 142406.49 140809.86 139091.13 136978.95 134687.32 131749.31 128534.61 125341.09 122003.89 
 118653.30 115442.58 111925.09 107844.53 103783.10 99974.14 96163.23 92492.52 88808.87 85334.94 
 82270.90 79154.86 75862.31 72660.13 69750.92 66612.10 63563.41 60671.66 57741.11 54930.44 
 52168.29 49414.97 46853.67 44446.19 41968.12 39593.44 37267.72 35234.65 33260.11 31145.82 
 29150.62 27305.64 25568.67 23884.73 22205.30 20653.92 19119.71 17713.72 16336.87 14980.27 
 13768.03 12600.99 11533.13 10466.01 9398.88  8518.85  7743.18  6989.15  6286.42  5648.26  
 5092.64  4594.53  4141.15  3716.07  3339.07  2974.72  2655.48  2373.98  2132.97  1924.79  
 1725.00  1527.31  1349.94  1190.60  1057.48  924.56   813.88   715.85   623.54   547.73   
 479.98   422.92   374.60   333.57   297.09   264.02   234.33   208.35   185.27   164.94   
 146.72   132.28   119.84   107.42   94.87    81.44    69.08    58.77    51.18    34.26    
 15.97    11.91    11.76    12.26    13.01    13.89    14.83    15.83    16.83    17.99    
 19.43    20.71    21.90    23.13    24.73    26.37    27.61    28.18    28.91    29.98    
 31.15    32.59    34.27    35.83    37.33    38.68    39.90    41.09    41.97    45.10    
 47.72    49.72    50.24    51.37    53.73    56.17    58.94    61.88    65.06    68.61    
 72.43    76.50    81.00    85.81    90.92    96.40    102.03   108.56   116.38   121.83   
 127.38   133.28   137.51   143.05   148.49   154.17   160.09   164.82   169.48   173.79   
 156.90   
135415.72 138627.92 141960.65 145325.91 148392.25 150893.60 153326.12 156004.53 158522.92 160519.51 
 161783.78 162386.57 162568.61 162000.02 159880.30 157920.79 155634.92 152825.25 149068.80 145076.07 
 141548.11 137897.75 134415.59 130931.24 127608.27 124393.59 121199.23 118362.42 115319.64 112437.18 
 109268.94 106249.26 103308.04 100210.41 97094.69 93794.43 90466.38 87501.87 84480.03 81350.68 
 78260.47 75106.05 72269.26 69581.94 67006.75 64428.45 61933.78 59750.19 57461.48 55084.64 
 52701.49 50456.28 48366.93 46270.23 44072.40 41948.86 40025.33 38077.60 36114.00 34162.72 
 32241.45 30485.13 28803.35 27009.74 25538.75 24067.76 22597.79 21222.74 19775.06 18402.24 
 16975.36 15610.94 14312.88 13034.77 11796.42 10559.81 9325.66  8223.37  7297.33  6518.49  
 5723.49  5008.70  4456.65  3975.90  3556.00  3203.59  2930.52  2657.45  2385.27  2196.75  
 2007.82  1810.53  1627.84  1463.99  1317.21  1186.64  1072.08  967.24   885.31   812.00   
 747.68   694.12   648.21   607.05   571.91   540.14   512.56   487.98   466.69   449.13   
 433.80   415.29   397.01   380.27   364.34   350.16   336.85   322.97   308.86   293.76   
 279.48   264.75   248.73   232.72   216.70   200.78   185.64   171.14   156.15   139.92   
 120.79   92.38    72.39    52.25    40.35    39.31    33.75    21.73    15.64    16.22    
 17.18    18.19    19.28    20.47    21.67    22.97    24.29    25.72    27.65    29.81    
 31.77    33.58    35.45    42.30    45.78    38.82    40.81    42.99    45.42    48.17    
 51.26    54.62    58.27    62.38    66.87    71.78    76.99    82.58    88.33    94.70    
 101.96   108.33   114.14   120.76   127.80   135.88   142.28   148.56   155.09   161.48   
 156.90   
135415.72 139709.51 144325.33 149344.26 153861.50 158314.65 161983.96 164785.84 166983.51 167775.44 
 166349.74 164520.24 161682.53 157546.99 153453.02 149459.63 145649.74 142038.67 138677.47 135462.64 
 131973.14 128405.08 124660.25 120761.77 116797.94 112709.41 108900.34 105367.53 102030.99 99128.21 
 96657.52 94558.91 92723.76 91255.13 90073.91 88935.14 87672.54 86360.88 84836.63 83014.87 
 81074.19 79040.41 76769.76 74556.93 72292.61 69939.77 67386.01 64638.34 61993.27 59437.17 
 56696.83 54159.57 51808.25 49534.69 47233.84 44880.71 42655.21 40526.89 38271.23 35922.41 
 33681.03 31602.44 29627.32 27645.21 25623.04 23676.50 21794.67 19921.42 18008.21 16118.68 
 14365.53 12885.89 11689.57 10495.34 9301.11  8311.23  7288.41  6393.45  5617.29  5010.16  
 4458.45  3979.04  3500.21  3109.78  2787.43  2527.76  2290.59  2077.56  1899.22  1758.52  
 1617.33  1468.42  1334.48  1218.11  1122.33  1026.71  951.64   887.17   832.31   784.14   
 742.35   705.87   673.45   645.70   619.60   595.09   572.53   552.59   533.99   516.18   
 499.38   484.30   470.45   456.79   443.09   429.65   416.73   404.29   392.26   381.54   
 371.57   362.14   352.41   341.14   329.03   317.22   305.41   293.12   281.99   269.93   
 257.60   243.99   229.68   216.19   203.36   191.41   179.25   166.17   152.43   138.25   
 120.93   103.58   72.48    34.60    26.13    22.96    20.66    17.38    17.81    19.14    
 20.63    22.17    23.84    25.62    27.43    29.40    31.75    34.12    36.22    38.51    
 47.24    48.57    45.68    49.00    52.86    57.30    62.05    67.17    72.69    78.51    
