IESNA:LM-63-2002
[TEST] 1
[TESTLAB] AOK
[TESTDATE] 2022-05-31
[ISSUEDATE] 2022-05-31 14:21:47
[NEARFIELD] 
[LAMPPOSITION] 0,0
[OTHER] EVERFINE GO-2000A_V1 SYSTEM
[MANUFAC] AOK
[LUMCAT] A
[LUMINAIRE] AOK-1200WiSF-HV-S5-00-5070-30D-P
[LAMPCAT] B
[LAMP] 5050
[BALLAST] E
[BALLASTCAT] F
[OTHER] 
[OTHER] Gamma(deg)    Fz(lm)      Ft(lm)     %Lum    %Lamp
[OTHER]   0- 10     33717.04    33717.04    19.18    19.18
[OTHER]  10- 20     55077.76    88794.80    50.50    50.50
[OTHER]  20- 30     33923.72   122718.52    69.79    69.79
[OTHER]  30- 40     22279.27   144997.80    82.46    82.46
[OTHER]  40- 50     13909.41   158907.21    90.37    90.37
[OTHER]  50- 60      7824.67   166731.87    94.82    94.82
[OTHER]  60- 70      4376.64   171108.52    97.31    97.31
[OTHER]  70- 80      2211.32   173319.84    98.57    98.57
[OTHER]  80- 90       956.79   174276.63    99.11    99.11
[OTHER]  90-100       471.92   174748.55    99.38    99.38
[OTHER] 100-110       298.75   175047.31    99.55    99.55
[OTHER] 110-120       217.67   175264.98    99.68    99.68
[OTHER] 120-130       159.94   175424.92    99.77    99.77
[OTHER] 130-140       116.30   175541.22    99.83    99.83
[OTHER] 140-150        93.30   175634.52    99.89    99.89
[OTHER] 150-160        89.47   175723.99    99.94    99.94
[OTHER] 160-170        78.87   175802.86    99.98    99.98
[OTHER] 170-180        30.16   175833.03   100.00   100.00
[OTHER] 
TILT=NONE
1 1.7583e+005 1 181 25 1 2 0.150 0.200 0.000
1.000 1 1209.83
0.0    1.0    2.0    3.0    4.0    5.0    6.0    7.0    8.0    9.0    
 10.0   11.0   12.0   13.0   14.0   15.0   16.0   17.0   18.0   19.0   
 20.0   21.0   22.0   23.0   24.0   25.0   26.0   27.0   28.0   29.0   
 30.0   31.0   32.0   33.0   34.0   35.0   36.0   37.0   38.0   39.0   
 40.0   41.0   42.0   43.0   44.0   45.0   46.0   47.0   48.0   49.0   
 50.0   51.0   52.0   53.0   54.0   55.0   56.0   57.0   58.0   59.0   
 60.0   61.0   62.0   63.0   64.0   65.0   66.0   67.0   68.0   69.0   
 70.0   71.0   72.0   73.0   74.0   75.0   76.0   77.0   78.0   79.0   
 80.0   81.0   82.0   83.0   84.0   85.0   86.0   87.0   88.0   89.0   
 90.0   91.0   92.0   93.0   94.0   95.0   96.0   97.0   98.0   99.0   
 100.0  101.0  102.0  103.0  104.0  105.0  106.0  107.0  108.0  109.0  
 110.0  111.0  112.0  113.0  114.0  115.0  116.0  117.0  118.0  119.0  
 120.0  121.0  122.0  123.0  124.0  125.0  126.0  127.0  128.0  129.0  
 130.0  131.0  132.0  133.0  134.0  135.0  136.0  137.0  138.0  139.0  
 140.0  141.0  142.0  143.0  144.0  145.0  146.0  147.0  148.0  149.0  
 150.0  151.0  152.0  153.0  154.0  155.0  156.0  157.0  158.0  159.0  
 160.0  161.0  162.0  163.0  164.0  165.0  166.0  167.0  168.0  169.0  
 170.0  171.0  172.0  173.0  174.0  175.0  176.0  177.0  178.0  179.0  
 180.0  
0.0    15.0   30.0   45.0   60.0   75.0   90.0   105.0  120.0  135.0  
 150.0  165.0  180.0  195.0  210.0  225.0  240.0  255.0  270.0  285.0  
 300.0  315.0  330.0  345.0  360.0  
391459.00 388773.80 389180.72 388828.74 364727.13 339220.05 313315.61 276133.38 252737.63 220211.56 
 187257.97 155528.07 137594.00 126904.56 115562.77 104213.18 92863.59 71297.38 54667.78 41137.47 
 28842.40 17827.34 10051.35 7515.30  5037.70  2560.09  82.48    41.07    34.87    30.81    
 27.17    25.28    23.31    20.86    18.43    16.54    14.87    13.34    12.38    11.67    
 11.42    11.24    11.25    10.77    10.37    10.32    10.76    11.31    11.88    12.62    
 13.25    13.68    14.05    14.55    15.05    15.14    15.01    14.70    14.34    13.92    
 13.39    12.78    12.26    11.75    11.21    10.74    10.44    10.21    9.93     9.71     
 9.56     9.39     9.25     9.09     8.97     8.86     8.66     8.55     8.45     8.31     
 8.35     8.38     8.42     8.46     8.49     8.53     8.73     8.89     9.08     9.35     
 9.62     9.89     10.15    10.43    10.77    11.12    11.50    11.93    12.39    12.87    
 13.36    13.88    14.47    15.10    15.77    16.50    17.25    18.04    18.91    19.87    
 20.89    22.04    23.31    24.65    26.10    27.67    29.39    31.21    33.18    35.32    
 37.61    40.01    42.66    45.52    48.50    51.67    55.19    59.00    63.03    67.33    
 71.82    76.64    81.84    87.48    93.44    99.73    106.41   113.87   121.89   130.48   
 139.70   149.70   160.60   172.17   184.38   197.38   211.13   225.16   240.91   256.67   
 272.52   288.50   303.67   318.44   333.28   347.79   361.60   374.58   387.08   398.96   
 409.63   419.29   428.27   436.10   442.50   446.76   449.23   449.34   447.19   442.80   
 435.93   428.51   420.13   410.69   399.92   388.10   374.92   359.45   342.43   323.76   
 302.40   
391459.00 388308.82 386714.46 385891.81 378025.53 346769.09 321480.18 293947.48 264111.64 234275.84 
 204455.51 176510.71 141494.72 126690.42 114697.40 103030.65 91916.66 81309.91 61796.03 48356.61 
 37076.98 26844.70 16645.18 10458.54 5679.23  939.17   596.81   415.79   308.05   200.94   
 156.52   116.46   120.21   91.41    51.63    37.57    30.96    27.25    24.92    23.10    
 21.68    20.49    19.26    17.91    16.69    15.75    15.07    14.51    14.11    13.87    
 13.75    13.50    12.99    12.25    11.48    10.75    10.15    9.70     9.24     8.78     
 8.38     8.00     7.70     7.48     7.21     7.03     6.83     6.63     6.41     6.21     
 6.09     5.94     5.87     5.82     5.73     5.69     5.65     5.64     5.63     5.65     
 5.69     5.72     5.76     5.95     6.15     6.28     6.49     6.77     6.99     7.22     
 7.54     7.88     8.18     8.52     8.85     9.16     9.52     10.00    10.53    11.05    
 11.58    12.13    12.75    13.42    14.14    14.91    15.72    16.60    17.58    18.62    
 19.70    20.87    22.17    23.59    25.09    26.69    28.39    30.17    32.08    34.16    
 36.42    38.94    41.61    44.32    47.31    50.51    53.98    57.69    61.61    65.74    
 70.20    74.92    79.98    85.39    91.10    97.21    103.93   111.23   119.69   128.14   
 137.45   147.42   158.17   169.67   181.95   195.23   208.91   223.28   238.26   253.60   
 269.67   285.38   300.54   316.43   331.72   346.52   360.62   373.93   386.94   398.90   
 409.99   420.46   430.23   439.03   445.57   450.25   452.85   452.49   450.51   446.43   
 440.75   433.76   426.50   418.67   408.91   397.67   384.77   370.08   353.47   335.37   
 302.40   
391459.00 388289.09 385277.50 383379.54 380262.08 357567.72 331839.41 302468.05 274162.01 245710.86 
 217813.18 190636.18 160292.31 132930.02 117177.62 101548.78 85919.93 75313.38 65840.16 57287.51 
 44264.22 36383.52 28492.42 20148.44 15619.15 10981.65 6342.54  1703.43  1242.16  834.35   
 426.54   306.61   231.45   176.99   149.94   126.74   103.57   80.41    68.75    58.00    
 51.23    46.03    40.94    38.17    35.24    33.33    31.14    28.81    26.90    25.59    
 25.13    24.58    23.67    22.23    20.74    19.62    18.65    17.62    16.43    15.37    
 14.25    13.24    12.37    11.84    11.20    10.66    10.12    9.68     9.23     8.68     
 8.18     7.74     7.38     7.08     6.79     6.52     6.30     6.07     5.87     5.72     
 5.61     5.59     5.62     5.74     5.90     6.09     6.29     6.51     6.76     7.02     
 7.30     7.61     7.95     8.33     8.73     9.14     9.60     10.09    10.58    11.11    
 11.70    12.34    13.00    13.68    14.43    15.26    16.11    17.02    17.95    18.96    
 20.11    21.34    22.63    24.06    25.57    27.21    28.93    30.81    32.80    34.94    
 37.22    39.65    42.29    45.13    48.11    51.21    54.55    58.26    62.16    66.28    
 70.64    75.20    80.03    85.20    90.98    97.24    103.95   111.12   118.86   127.26   
 136.16   145.93   156.69   168.19   180.38   193.26   206.98   221.29   237.19   253.10   
 268.52   284.01   299.68   315.39   331.02   346.04   360.57   375.02   388.94   401.73   
 413.69   424.69   434.43   442.68   449.31   454.02   456.62   457.43   456.01   453.70   
 449.48   444.54   438.47   430.20   420.46   408.58   395.03   379.95   363.29   345.88   
 302.40   
391459.00 388557.25 384310.34 380958.06 375315.00 367075.52 349226.33 320539.73 297238.58 268221.19 
 239814.18 211473.02 191027.87 160209.26 137055.90 113360.80 93010.34 75063.41 65248.87 56725.50 
 50483.11 45150.99 40665.51 36529.93 30953.52 25268.22 19599.98 15789.69 12053.81 8856.99  
 6697.85  4789.33  2880.82  985.14   670.67   466.40   344.22   286.69   229.16   171.91   
 143.30   121.78   104.24   88.52    77.99    67.55    59.99    53.91    48.35    44.02    
 40.68    38.14    36.00    33.68    31.65    30.39    29.98    29.77    29.24    27.75    
 25.59    23.57    21.60    19.89    18.28    16.70    15.40    14.41    13.46    12.43    
 11.67    10.86    10.06    9.44     8.83     8.28     7.68     7.15     6.67     6.22     
 5.83     5.58     5.56     5.63     5.77     5.95     6.16     6.39     6.64     6.91     
 7.21     7.54     7.87     8.25     8.64     9.07     9.56     10.08    10.60    11.15    
 11.73    12.35    13.03    13.76    14.55    15.35    16.21    17.16    18.16    19.21    
 20.31    21.48    22.76    24.14    25.65    27.22    28.95    30.73    32.65    34.69    
 36.92    39.35    41.94    44.56    47.36    50.37    53.61    57.08    60.71    64.60    
 68.72    73.13    77.86    82.94    88.32    94.17    100.60   107.53   114.82   123.76   
 132.71   142.30   152.69   164.05   176.05   189.01   202.37   216.65   231.45   246.65   
 262.62   278.30   294.07   310.70   326.81   342.78   358.32   372.89   387.29   400.59   
 412.88   424.08   433.91   442.52   449.16   454.17   457.88   460.27   460.57   459.41   
 456.55   451.85   445.41   437.95   428.43   417.07   403.92   389.07   372.69   356.51   
 302.40   
391459.00 388848.91 385000.93 378472.86 370443.50 361348.57 351264.99 339182.52 323896.28 295851.64 
 266621.57 243822.04 216601.08 190921.44 165338.80 140035.65 122666.37 104998.80 87326.39 75153.04 
 63213.75 54887.64 47497.96 40321.26 36375.04 33036.91 29983.35 27258.39 24457.96 21993.93 
 19732.65 17501.61 15100.09 12187.96 10032.95 7886.56  6034.35  4929.22  3747.63  2808.97  
 2009.06  1350.91  1008.96  670.82   478.26   365.47   293.08   238.37   196.56   160.79   
 137.61   121.20   104.88   90.84    78.34    69.29    61.28    54.88    50.53    46.79    
 43.01    40.96    38.62    36.55    34.50    32.29    29.57    26.15    23.31    21.24    
 19.38    17.80    16.14    14.57    13.32    12.20    11.22    10.29    9.29     8.30     
 7.34     6.60     6.17     6.13     6.25     6.44     6.66     6.90     7.16     7.43     
 7.74     8.07     8.42     8.81     9.22     9.65     10.11    10.60    11.11    11.67    
 12.27    12.91    13.59    14.32    15.10    15.92    16.78    17.70    18.68    19.68    
 20.78    21.96    23.25    24.61    26.06    27.61    29.29    31.02    32.91    34.89    
 37.02    39.25    41.70    44.27    46.99    49.80    52.87    56.22    59.74    63.48    
 67.38    71.52    75.92    80.73    86.04    91.84    98.13    104.91   112.32   120.56   
 129.61   139.46   150.19   161.74   174.12   187.46   201.65   216.42   230.94   247.65   
 264.38   280.27   296.11   311.73   327.34   342.92   357.97   372.54   386.58   399.49   
 411.48   422.80   433.01   441.93   449.62   455.74   460.54   463.37   464.35   463.54   
 461.10   456.60   450.57   443.10   434.04   423.57   411.96   398.91   384.62   369.75   
 302.40   
391459.00 389517.48 386359.41 380935.76 371951.04 361639.79 350164.45 337834.79 323730.86 306940.00 
 288500.09 268525.65 246400.62 224269.53 201457.62 180061.70 160101.77 139097.76 120111.77 104669.50 
 92796.02 83428.16 74569.92 66584.89 60481.74 55309.78 50411.33 45358.23 40814.94 37096.96 
 33887.64 30988.41 28037.04 25557.94 23081.50 20922.84 18803.32 17041.79 15420.38 13838.03 
 12331.06 11059.11 9938.74  8882.50  7905.87  6923.21  6040.65  5190.63  4455.82  3729.09  
 3133.10  2537.11  1942.81  1517.76  1170.86  935.78   749.00   613.40   503.57   409.41   
 331.59   280.22   228.85   177.70   149.60   124.96   105.65   87.79    74.37    63.58    
 54.30    47.62    42.14    38.43    34.11    29.38    23.84    20.43    17.68    15.12    
 12.89    10.70    7.74     5.76     5.57     5.69     5.86     6.04     6.26     6.49     
 6.75     7.04     7.35     7.70     8.08     8.49     8.92     9.40     9.88     10.38    
 10.89    11.45    12.03    12.66    13.35    14.05    14.83    15.66    16.60    17.59    
 18.62    19.73    20.94    22.20    23.60    25.11    26.67    28.26    29.97    31.82    
 33.85    36.03    38.40    40.81    43.45    46.33    49.29    52.63    56.10    59.74    
 63.53    67.62    72.00    76.63    81.58    86.88    92.85    99.25    106.15   113.76   
 122.38   131.01   140.80   151.88   163.65   176.51   190.03   204.30   219.23   234.72   
 250.61   266.58   282.47   298.88   314.98   331.04   346.74   361.66   376.79   390.83   
 404.29   416.79   428.28   439.28   448.48   456.30   462.40   467.60   470.49   472.23   
 471.98   468.59   463.57   457.42   449.68   440.90   431.09   419.71   406.98   393.53   
 302.40   
391459.00 389760.64 387384.60 383527.02 375992.87 366510.93 356583.99 345230.16 331599.02 315651.65 
 297628.54 278342.03 257369.55 235192.41 213025.25 191716.10 171360.93 152514.28 135442.55 120933.17 
 108454.52 97946.61 89197.37 82009.75 75796.76 70205.25 64945.84 60180.08 55779.36 51705.26 
 47990.11 44624.59 41444.18 38485.44 35889.65 33427.39 31090.77 28868.03 26754.82 25026.68 
 23298.54 21571.60 19964.68 18507.31 16990.22 15636.45 14406.70 13205.81 12150.33 11105.30 
 10176.54 9358.95  8620.22  7958.42  7337.05  6794.43  6281.38  5804.37  5345.37  4910.98  
 4527.53  4156.15  3806.90  3465.11  3153.52  2866.17  2602.37  2338.77  2093.41  1869.69  
 1659.43  1464.93  1291.27  1127.02  976.81   834.74   706.01   587.95   486.40   401.11   
 328.69   272.12   215.54   158.97   102.62   50.56    14.98    6.88     4.80     3.95     
 3.74     3.83     3.75     3.60     2.38     2.37     2.50     2.73     2.76     2.76     
 2.84     2.92     3.05     3.24     3.22     3.32     3.51     3.63     3.70     3.90     
 4.08     4.13     4.32     4.55     4.86     5.18     5.38     5.58     5.82     6.06     
 6.35     6.67     7.00     7.40     7.86     8.38     8.95     9.57     10.24    10.97    
 11.79    12.68    13.70    14.77    15.89    17.14    18.50    20.09    21.73    23.48    
 25.42    27.54    29.97    32.60    35.50    38.71    42.13    45.82    49.73    53.86    
 58.21    62.76    67.60    72.68    78.08    83.67    89.67    96.04    102.86   109.96   
 117.24   125.25   133.27   141.76   150.09   158.82   168.26   178.25   188.31   200.61   
 211.86   223.95   236.27   249.54   263.78   278.59   294.03   309.80   324.51   338.89   
 302.40   
391459.00 390673.77 389217.98 386150.23 380287.11 372307.76 363548.32 352982.04 340755.26 326086.74 
 308969.20 290342.27 270410.17 249370.40 227459.72 206130.12 185918.55 167537.21 150738.42 135793.50 
 122665.98 113492.55 104354.28 95216.02 88444.81 82601.27 77183.94 72319.72 67602.65 63262.19 
 59214.65 55584.32 52431.05 49258.57 46394.99 43710.15 41128.57 38688.77 36424.64 34253.34 
 32223.65 30265.69 28343.60 26464.85 24758.60 23112.56 21557.03 20084.46 18647.79 17383.72 
 16179.09 15053.66 14038.45 13200.22 12406.66 11676.07 10978.19 10280.59 9707.92  9159.68  
 8608.84  8104.23  7616.41  7184.23  6756.55  6339.21  5941.79  5559.23  5197.02  4854.42  
 4539.77  4246.77  3967.81  3685.81  3417.64  3171.81  2946.00  2728.70  2523.77  2332.84  
 2153.92  1982.64  1823.73  1678.02  1545.07  1418.20  1298.13  1194.36  1107.68  1021.16  
 944.19   866.33   794.66   728.59   669.10   612.77   561.30   511.53   464.48   425.51   
 388.15   354.70   324.57   297.62   272.45   247.13   223.75   201.52   180.57   161.39   
 144.14   128.88   113.92   98.96    84.93    71.23    59.97    50.70    43.24    28.25    
 10.39    5.93     5.48     5.54     5.85     6.25     6.69     7.17     7.70     8.70     
 9.88     10.86    11.89    13.11    14.79    16.79    18.00    18.06    18.49    19.57    
 20.96    22.64    24.64    27.55    29.52    31.57    32.96    35.44    39.78    43.69    
 47.31    51.15    54.43    56.88    61.42    66.22    71.30    76.79    82.51    88.54    
 94.77    101.39   108.35   115.69   123.39   131.56   140.23   150.20   161.21   170.64   
 181.48   193.79   206.31   219.23   234.83   250.46   266.65   283.82   300.41   317.21   
 302.40   
391459.00 391652.31 391407.20 390511.56 387587.42 382101.78 375312.91 367600.94 358089.74 346136.48 
 331964.39 315691.20 297313.28 276534.83 254909.98 233285.17 211676.51 191401.61 172651.55 156013.76 
 141536.16 129168.39 119115.41 110409.16 103033.27 96575.24 90593.78 85187.88 80124.92 75272.93 
 71016.90 66933.83 63252.85 59791.45 56703.26 53705.95 50780.82 48002.69 45405.35 42872.42 
 40485.25 38178.85 35895.34 33777.71 31777.70 29782.16 27839.02 26027.19 24395.41 22764.58 
 21214.03 19797.43 18437.27 17180.84 16005.17 14899.48 13947.33 13087.52 12281.78 11552.62 
 10888.41 10247.15 9633.83  9066.80  8553.77  8068.38  7586.04  7127.71  6686.62  6259.50  
 5838.93  5436.02  5050.24  4702.26  4364.13  4052.31  3749.41  3469.37  3208.55  2962.37  
 2746.98  2531.58  2316.66  2141.48  1986.03  1843.57  1709.95  1590.84  1486.71  1398.56  
 1318.07  1233.52  1152.85  1078.73  1009.09  946.65   889.46   832.67   786.75   743.91   
 705.54   672.03   641.67   613.72   587.69   564.76   543.51   523.64   505.69   490.22   
 475.03   458.31   442.33   427.39   413.64   399.76   385.32   371.13   356.31   341.27   
 326.61   311.43   296.11   279.38   262.60   244.86   227.11   209.37   192.41   173.35   
 151.77   117.43   87.81    58.28    38.27    36.22    31.25    21.37    11.67    11.65    
 12.78    14.04    15.46    17.13    18.95    21.02    23.27    25.83    29.22    33.00    
 36.73    40.56    44.90    54.13    71.53    55.15    57.58    62.19    67.18    72.52    
 78.17    84.05    90.20    96.75    103.64   111.04   118.97   128.66   137.28   147.32   
 158.35   170.29   182.74   195.60   210.35   225.71   242.22   259.00   276.55   294.08   
 302.40   
391459.00 392486.32 393362.40 394000.48 394084.18 392825.02 389229.42 383641.63 375828.72 365827.98 
 353048.40 337642.35 319887.34 299864.53 277653.53 254162.61 231906.88 210781.05 191635.49 173611.99 
 157647.82 144421.88 133822.05 124900.92 117886.96 111096.31 104307.32 98664.05 93328.72 88126.24 
 83188.74 78726.19 74460.97 70276.25 66541.38 62964.04 59427.37 55981.70 52860.75 49674.74 
 46684.79 43791.24 40953.70 38179.67 35626.79 33253.14 30900.70 28686.39 26713.69 24955.82 
 23302.69 21744.18 20300.73 18964.66 17708.34 16559.07 15501.36 14570.52 13707.75 12865.22 
 12042.57 11309.43 10576.96 9922.44  9293.43  8689.79  8121.51  7581.91  7050.93  6535.61  
 6072.77  5649.12  5244.87  4850.02  4485.59  4148.98  3820.62  3508.30  3222.88  2962.45  
 2722.61  2504.52  2290.20  2093.23  1921.39  1780.10  1648.30  1526.16  1418.08  1334.48  
 1262.68  1191.04  1119.39  1047.74  994.05   944.41   901.03   862.94   829.34   798.56   
 771.38   747.03   725.11   704.84   684.93   665.59   647.50   631.05   616.16   601.41   
 586.19   572.00   559.15   546.32   532.45   518.96   506.50   494.35   482.21   471.87   
 462.10   452.35   443.02   432.53   421.05   409.73   398.75   386.92   375.54   363.75   
 350.97   336.28   319.05   303.55   288.58   273.45   257.88   241.88   224.12   204.96   
 184.94   160.52   121.03   75.31    29.53    25.59    24.29    22.38    22.94    25.65    
 28.76    32.01    35.55    39.43    43.50    47.77    52.76    57.91    62.90    68.14    
 82.42    95.98    82.66    88.94    95.79    103.31   111.13   119.36   127.99   136.96   
