IESNA:LM-63-2002
[TEST] 1
[TESTLAB] AOK
[TESTDATE] 2022-05-16
[ISSUEDATE] 2022-05-16 08:46:28
[NEARFIELD] 
[LAMPPOSITION] 0,0
[OTHER] EVERFINE GO-2000A_V1 SYSTEM
[MANUFAC] AOK
[LUMCAT] A
[LUMINAIRE] AOK-400WiSF-HVY-S5-00-5070-3585D-P
[LAMPCAT] B
[LAMP] 5050
[BALLAST] E
[BALLASTCAT] F
[OTHER] 
[OTHER] Gamma(deg)    Fz(lm)      Ft(lm)     %Lum    %Lamp
[OTHER]   0- 10      4234.74     4234.74     7.95     7.95
[OTHER]  10- 20      8902.92    13137.66    24.65    24.65
[OTHER]  20- 30     10236.31    23373.97    43.86    43.86
[OTHER]  30- 40     10075.03    33449.00    62.76    62.76
[OTHER]  40- 50      8301.53    41750.53    78.33    78.33
[OTHER]  50- 60      5907.78    47658.31    89.42    89.42
[OTHER]  60- 70      3329.35    50987.66    95.67    95.67
[OTHER]  70- 80      1373.22    52360.88    98.24    98.24
[OTHER]  80- 90       433.38    52794.27    99.05    99.05
[OTHER]  90-100       173.42    52967.69    99.38    99.38
[OTHER] 100-110        92.86    53060.54    99.55    99.55
[OTHER] 110-120        67.34    53127.88    99.68    99.68
[OTHER] 120-130        52.49    53180.37    99.78    99.78
[OTHER] 130-140        41.13    53221.50    99.86    99.86
[OTHER] 140-150        32.20    53253.70    99.92    99.92
[OTHER] 150-160        24.29    53277.99    99.96    99.96
[OTHER] 160-170        14.89    53292.88    99.99    99.99
[OTHER] 170-180         5.23    53298.11   100.00   100.00
[OTHER] 
TILT=NONE
1 53298 1 181 25 1 2 0.150 0.200 0.000
1.000 1 397.606
0.0    1.0    2.0    3.0    4.0    5.0    6.0    7.0    8.0    9.0    
 10.0   11.0   12.0   13.0   14.0   15.0   16.0   17.0   18.0   19.0   
 20.0   21.0   22.0   23.0   24.0   25.0   26.0   27.0   28.0   29.0   
 30.0   31.0   32.0   33.0   34.0   35.0   36.0   37.0   38.0   39.0   
 40.0   41.0   42.0   43.0   44.0   45.0   46.0   47.0   48.0   49.0   
 50.0   51.0   52.0   53.0   54.0   55.0   56.0   57.0   58.0   59.0   
 60.0   61.0   62.0   63.0   64.0   65.0   66.0   67.0   68.0   69.0   
 70.0   71.0   72.0   73.0   74.0   75.0   76.0   77.0   78.0   79.0   
 80.0   81.0   82.0   83.0   84.0   85.0   86.0   87.0   88.0   89.0   
 90.0   91.0   92.0   93.0   94.0   95.0   96.0   97.0   98.0   99.0   
 100.0  101.0  102.0  103.0  104.0  105.0  106.0  107.0  108.0  109.0  
 110.0  111.0  112.0  113.0  114.0  115.0  116.0  117.0  118.0  119.0  
 120.0  121.0  122.0  123.0  124.0  125.0  126.0  127.0  128.0  129.0  
 130.0  131.0  132.0  133.0  134.0  135.0  136.0  137.0  138.0  139.0  
 140.0  141.0  142.0  143.0  144.0  145.0  146.0  147.0  148.0  149.0  
 150.0  151.0  152.0  153.0  154.0  155.0  156.0  157.0  158.0  159.0  
 160.0  161.0  162.0  163.0  164.0  165.0  166.0  167.0  168.0  169.0  
 170.0  171.0  172.0  173.0  174.0  175.0  176.0  177.0  178.0  179.0  
 180.0  
0.0    15.0   30.0   45.0   60.0   75.0   90.0   105.0  120.0  135.0  
 150.0  165.0  180.0  195.0  210.0  225.0  240.0  255.0  270.0  285.0  
 300.0  315.0  330.0  345.0  360.0  
46859.91 44453.68 43176.33 42438.09 38733.63 32949.23 28535.77 24203.22 18807.46 15345.26 
 11530.39 7711.14  3891.89  1998.84  126.82   71.74    35.61    25.81    20.06    16.61    
 14.43    12.53    11.02    10.20    9.50     8.89     8.21     7.66     7.20     6.93     
 6.90     6.71     6.28     5.67     5.16     4.99     4.87     4.85     4.63     4.61     
 4.58     4.49     4.23     4.13     4.10     4.09     4.09     4.06     3.96     3.83     
 3.75     3.67     3.61     3.52     3.46     3.36     3.24     3.14     3.07     2.98     
 2.93     2.92     2.89     2.83     2.76     2.68     2.61     2.54     2.49     2.44     
 2.42     2.39     2.36     2.34     2.32     2.33     2.34     2.35     2.36     2.37     
 2.43     2.50     2.57     2.67     2.84     3.00     3.14     3.26     3.39     3.52     
 3.67     3.83     4.01     4.19     4.37     4.56     4.78     5.02     5.30     5.63     
 6.00     6.41     6.84     7.32     7.82     8.36     8.92     9.52     10.13    10.77    
 11.43    12.12    12.84    13.57    14.32    15.09    15.87    16.69    17.54    18.43    
 19.38    20.36    21.43    22.54    23.73    24.95    26.27    27.64    29.06    30.43    
 31.89    33.40    34.91    36.41    37.92    39.41    40.93    42.43    43.94    45.42    
 46.89    48.43    50.08    51.81    53.60    55.47    57.42    59.40    61.49    63.71    
 66.01    68.36    70.73    73.11    75.50    77.73    79.80    81.72    83.45    84.96    
 86.27    87.38    88.18    88.63    88.70    88.34    87.58    86.34    84.72    82.70    
 80.41    77.81    75.05    72.15    69.14    66.06    62.97    59.90    56.81    53.44    
 49.83    
46859.91 44509.64 43113.97 42297.26 41252.71 34295.04 30520.31 26370.00 22219.70 18062.10 
 12981.06 10038.46 6781.56  3619.50  484.58   367.55   250.51   134.42   115.07   109.77   
 113.22   83.92    66.82    73.48    72.25    60.93    44.55    38.92    33.41    24.49    
 18.41    15.47    13.62    12.09    10.65    9.17     8.50     8.36     8.03     7.83     
 7.67     7.34     7.08     6.74     6.37     5.95     5.67     5.40     5.12     4.84     
 4.59     4.34     4.08     3.85     3.63     3.41     3.20     3.02     2.88     2.76     
 2.65     2.57     2.48     2.38     2.31     2.26     2.20     2.17     2.15     2.10     
 2.07     2.02     2.00     1.98     1.98     1.98     1.99     2.00     2.02     2.07     
 2.12     2.18     2.25     2.34     2.44     2.54     2.65     2.78     2.91     3.06     
 3.23     3.41     3.59     3.81     4.04     4.30     4.57     4.88     5.22     5.59     
 6.01     6.45     6.94     7.44     7.98     8.52     9.08     9.67     10.29    10.92    
 11.58    12.29    13.02    13.73    14.48    15.26    16.10    16.98    17.88    18.83    
 19.80    20.87    21.97    23.15    24.34    25.58    26.89    28.24    29.62    31.01    
 32.41    33.81    35.22    36.61    37.96    39.32    40.68    42.03    43.35    44.73    
 46.19    47.72    49.30    50.99    52.75    54.56    56.43    58.41    60.47    62.66    
 64.92    67.26    69.54    71.84    74.06    76.12    78.02    79.71    81.26    82.56    
 83.71    84.67    85.32    85.67    85.64    85.18    84.37    83.13    81.52    79.62    
 77.56    75.27    72.96    70.58    68.14    65.65    63.02    60.28    57.30    54.23    
 49.83    
46859.91 44776.26 43398.19 42602.25 42136.82 38459.33 33077.93 29508.73 25958.40 20476.17 
 17320.93 13267.72 10357.63 7460.43  4563.23  967.29   668.02   402.36   266.26   232.36   
 190.53   153.44   148.08   146.66   127.09   107.32   87.54    77.28    79.34    69.34    
 67.93    56.39    52.33    51.31    44.94    45.10    35.48    33.15    34.73    32.66    
 30.42    30.37    33.72    31.65    28.72    28.28    27.09    25.48    21.88    21.41    
 19.25    16.54    12.23    10.24    9.37     8.97     8.30     7.56     6.74     5.89     
 5.10     4.54     4.13     3.85     3.55     3.19     2.85     2.56     2.38     2.23     
 2.13     2.06     2.02     1.99     1.97     1.96     1.94     1.94     1.94     1.94     
 1.98     2.04     2.12     2.23     2.35     2.48     2.63     2.79     2.98     3.19     
 3.41     3.67     3.95     4.26     4.60     4.96     5.38     5.80     6.25     6.71     
 7.20     7.71     8.25     8.80     9.38     10.02    10.67    11.34    12.03    12.76    
 13.53    14.32    15.14    16.01    16.92    17.83    18.79    19.76    20.80    21.89    
 22.99    24.11    25.27    26.44    27.61    28.77    29.93    31.13    32.32    33.50    
 34.69    35.86    37.05    38.27    39.57    40.91    42.28    43.70    45.17    46.71    
 48.35    50.06    51.84    53.65    55.51    57.45    59.49    61.55    63.61    65.71    
 67.84    69.89    71.86    73.66    75.32    76.90    78.36    79.67    80.80    81.79    
 82.60    83.13    83.37    83.32    82.98    82.34    81.45    80.25    78.85    77.37    
 75.69    73.88    72.09    70.06    68.09    65.99    63.93    61.76    59.43    57.10    
 49.83    
46859.91 45315.29 43818.83 42962.75 42353.11 41625.72 39863.93 34315.38 31032.70 27901.84 
 24529.00 21153.61 17486.61 15779.34 11665.73 9543.66  7026.34  4981.18  2936.03  904.10   
 650.60   474.94   378.54   313.88   249.23   184.86   152.57   115.63   91.04    78.59    
 69.13    61.29    56.37    52.07    48.68    45.28    42.44    39.17    36.22    34.06    
 31.52    29.12    26.27    24.21    21.88    20.93    20.22    19.67    18.80    18.06    
 17.13    16.07    14.87    13.48    12.24    11.32    10.58    9.91     9.22     8.56     
 7.94     7.31     6.73     6.25     5.81     5.45     5.10     4.73     4.35     3.98     
 3.61     3.30     3.01     2.78     2.59     2.42     2.28     2.18     2.12     2.12     
 2.13     2.16     2.23     2.35     2.50     2.68     2.89     3.11     3.37     3.64     
 3.96     4.29     4.65     5.03     5.44     5.87     6.35     6.83     7.33     7.86     
 8.39     8.94     9.53     10.16    10.84    11.53    12.24    12.99    13.78    14.58    
 15.41    16.27    17.19    18.10    19.07    20.04    21.06    22.07    23.08    24.10    
 25.16    26.28    27.42    28.54    29.67    30.86    32.06    33.32    34.60    35.90    
 37.24    38.63    40.05    41.48    42.96    44.48    46.06    47.67    49.27    50.93    
 52.68    54.42    56.14    57.91    59.63    61.38    63.11    64.79    66.39    67.96    
 69.47    70.91    72.23    73.50    74.71    75.79    76.72    77.48    78.11    78.59    
 78.90    79.05    79.01    78.75    78.33    77.76    77.09    76.30    75.39    74.37    
 73.30    72.15    70.90    69.60    68.27    66.86    65.34    63.82    62.16    60.46    
 49.83    
46859.91 45860.18 44838.11 43850.41 43028.50 42199.03 40983.35 40403.98 39521.49 36457.17 
 32621.47 30053.03 27649.10 25358.35 23518.81 20830.02 17794.28 15468.46 13954.11 11651.03 
 9845.04  8045.13  6273.50  4972.54  3342.82  1551.53  1207.36  878.39   549.42   409.67   
 311.39   234.73   193.84   166.28   145.29   125.34   110.10   94.90    82.75    71.91    
 63.01    54.72    47.85    42.47    37.82    33.66    29.21    26.33    23.77    21.22    
 19.38    17.79    15.76    13.79    12.54    11.73    11.15    10.54    9.94     9.36     
 8.82     8.30     7.81     7.34     6.92     6.55     6.21     5.91     5.65     5.41     
 5.21     4.99     4.77     4.49     4.26     4.02     3.78     3.54     3.32     3.09     
 2.89     2.72     2.65     2.70     2.87     3.09     3.32     3.58     3.87     4.17     
 4.51     4.88     5.27     5.68     6.14     6.62     7.11     7.64     8.24     8.86     
 9.51     10.19    10.91    11.69    12.49    13.31    14.17    15.07    16.00    16.94    
 17.89    18.89    19.92    20.98    22.08    23.21    24.37    25.54    26.77    28.02    
 29.29    30.60    31.95    33.31    34.69    36.09    37.53    38.99    40.48    41.95    
 43.43    44.93    46.45    47.97    49.47    50.96    52.48    53.99    55.51    56.98    
 58.44    59.86    61.29    62.70    64.08    65.38    66.64    67.81    68.89    69.89    
 70.83    71.65    72.40    73.08    73.70    74.18    74.56    74.87    75.10    75.25    
 75.35    75.36    75.32    75.21    75.07    74.84    74.56    74.24    73.88    73.38    
 72.76    72.10    71.40    70.64    69.86    69.03    68.11    67.09    66.01    64.87    
 49.83    
46859.91 46438.79 46028.96 45593.07 44815.22 43918.11 42961.92 42225.29 41251.07 40381.59 
 39511.24 38535.71 37820.54 37074.04 36250.25 35349.42 34398.15 32966.83 30981.87 28743.15 
 26552.13 24877.14 23471.75 22065.13 20511.74 18768.09 17209.72 16115.83 14264.25 12640.39 
 11129.83 9597.56  8510.72  7408.87  6276.51  5123.44  4275.26  3732.56  3133.51  2534.45  
 1937.24  1526.97  1140.94  896.96   704.18   549.64   375.61   304.02   232.44   161.20   
 127.65   105.09   87.28    72.18    62.21    52.89    45.43    39.80    34.56    30.25    
 26.68    23.79    20.99    18.66    16.76    15.17    13.89    12.15    10.94    10.31    
 9.92     9.59     9.26     8.88     8.56     8.20     7.95     7.67     7.43     7.00     
 6.37     5.48     4.44     3.17     2.45     2.57     2.76     2.97     3.20     3.45     
 3.74     4.04     4.38     4.74     5.15     5.57     6.05     6.54     7.07     7.63     
 8.22     8.83     9.48     10.18    10.93    11.69    12.51    13.37    14.27    15.22    
 16.19    17.21    18.27    19.39    20.49    21.62    22.80    23.97    25.13    26.34    
 27.60    28.93    30.28    31.62    32.94    34.33    35.77    37.23    38.67    40.10    
 41.55    42.98    44.43    45.84    47.25    48.63    50.01    51.37    52.68    54.00    
 55.29    56.52    57.73    58.90    60.04    61.16    62.23    63.25    64.25    65.20    
 66.13    66.99    67.79    68.55    69.27    69.92    70.55    71.10    71.64    72.11    
 72.54    72.94    73.29    73.69    74.04    74.39    74.72    74.95    75.09    75.02    
 74.74    74.42    74.06    73.66    73.20    72.71    72.14    71.44    70.70    69.84    
 49.83    
46859.91 47063.45 47282.88 47482.61 47374.97 47108.38 46663.43 46407.36 45848.12 45336.26 
 44880.05 44359.56 43847.74 43390.42 42776.90 42215.69 41660.18 41237.49 40513.88 39816.33 
 39124.08 38353.06 37743.83 37207.20 36330.56 35611.64 34628.33 33722.59 32915.65 31977.51 
 31143.97 30106.78 29060.72 27938.38 26832.99 25804.50 24818.58 23830.99 22704.05 21635.10 
 20546.39 19568.32 18399.49 17432.83 16330.49 15393.29 14343.61 13406.02 12398.03 11536.45 
 10651.25 9734.94  8871.90  8130.21  7395.27  6679.45  6035.25  5486.47  4900.85  4339.24  
 3843.12  3406.73  3023.74  2676.48  2329.95  2054.54  1790.18  1549.61  1327.90  1142.69  
 972.45   821.08   684.78   571.47   467.38   378.10   314.92   251.75   188.83   148.32   
 112.08   85.10    64.81    49.34    34.27    9.05     4.40     2.17     1.56     1.42     
 1.40     1.30     1.08     1.09     1.12     1.16     1.20     1.25     1.31     1.37     
 1.45     1.52     1.61     1.71     1.81     1.92     2.05     2.19     2.33     2.48     
 2.64     2.81     3.00     3.19     3.40     3.61     3.81     4.03     4.26     4.53     
 4.80     5.09     5.40     5.69     6.00     6.33     6.66     7.01     7.36     7.73     
 8.11     8.50     8.93     9.35     9.77     10.18    10.63    11.10    11.59    12.06    
 12.57    13.11    13.67    14.27    14.87    15.56    16.26    16.97    17.73    18.48    
 19.24    20.01    20.85    21.72    22.65    23.62    24.71    25.92    27.20    28.55    
 29.94    31.40    32.91    34.51    36.14    37.88    39.75    41.51    43.21    44.94    
 46.62    48.29    49.99    51.56    53.07    54.51    55.91    57.14    58.30    59.44    
 49.83    
46859.91 47744.80 48590.65 49367.60 49914.04 50332.51 50537.85 50922.28 51143.34 51451.47 
 51550.89 51596.06 51681.08 51758.38 51730.75 51730.54 51569.57 51431.12 51111.75 50585.24 
 49883.58 49277.03 48510.15 47794.27 46768.37 45848.82 44861.56 43695.38 42448.22 41139.89 
 39907.47 38820.78 37598.45 36399.07 35292.62 34094.21 32931.33 31736.48 30681.42 29515.89 
 28437.81 27481.38 26522.08 25441.89 24449.25 23417.09 22299.93 21355.45 20420.44 19416.91 
 18488.03 17480.69 16484.66 15621.64 14828.34 14015.52 13230.74 12446.20 11736.02 11026.45 
 10316.88 9625.10  8967.07  8333.86  7758.05  7162.35  6589.75  6048.41  5498.34  5002.98  
 4507.24  4063.43  3643.26  3226.60  2856.09  2545.23  2286.37  2019.82  1781.80  1562.00  
 1387.32  1232.22  1100.66  969.29   867.18   771.64   693.69   628.84   567.19   511.10   
 461.18   409.60   361.26   322.45   289.35   259.42   233.12   210.59   191.35   173.46   
 158.61   145.33   132.73   122.66   112.61   104.39   97.49    90.98    85.97    81.20    
 76.88    73.07    69.73    66.11    62.92    59.80    56.64    54.00    51.13    48.71    
 46.06    43.56    41.58    39.05    36.50    33.89    31.26    28.70    25.93    22.86    
 19.06    15.27    12.19    10.06    8.28     7.09     6.74     6.91     7.30     7.72     
 8.14     8.58     9.02     9.46     9.90     10.36    10.80    11.25    11.70    12.18    
 12.68    13.18    13.70    14.24    14.82    15.46    16.16    16.93    17.76    18.73    
 19.75    20.90    22.18    23.53    25.03    26.70    28.53    30.35    32.32    34.30    
 36.33    38.45    40.60    42.68    44.79    46.85    48.84    50.82    52.74    54.73    
 49.83    
46859.91 48320.92 49688.76 51008.51 52346.65 53535.65 54379.49 55285.95 56056.15 56679.41 
 56930.87 57081.27 56831.01 56052.33 54848.25 53421.73 52239.83 50991.91 49933.99 48949.62 
 47818.36 46774.82 45643.21 44563.07 43403.95 42380.69 41269.50 40210.52 39144.05 38122.06 
 37117.83 36010.13 34905.98 33757.12 32571.22 31317.92 30157.60 29029.16 27874.84 26909.98 
 25973.48 25052.61 24133.20 23353.88 22551.51 21809.32 21042.45 20332.10 19637.56 18934.30 
 18217.97 17467.11 16726.17 15932.92 15195.05 14488.41 13799.48 13160.08 12494.80 11780.41 
 11089.68 10432.54 9821.01  9302.55  8824.11  8344.49  7836.44  7268.93  6717.35  6203.28  
 5720.23  5237.78  4770.41  4302.63  3867.23  3381.29  3006.86  2632.43  2259.06  1982.41  
 1702.33  1442.42  1258.23  1082.83  951.47   834.02   751.47   684.74   630.33   584.17   
 535.91   488.95   444.48   405.25   371.61   342.48   315.49   291.64   269.83   252.19   
 234.54   216.95   204.22   192.41   181.65   172.09   163.79   155.96   149.12   143.00   
 137.48   132.58   127.62   122.79   118.48   114.32   110.55   106.60   103.01   99.49    
 96.23    92.90    89.89    86.92    84.07    81.08    78.17    74.99    72.15    69.21    
 66.66    63.84    61.19    58.66    56.17    53.80    51.21    48.42    45.70    42.99    
 40.28    37.27    33.42    31.03    28.43    23.19    21.01    15.80    9.34     8.11     
 7.82     8.16     8.65     9.18     9.71     10.24    10.79    11.38    12.03    12.81    
 13.62    14.45    15.38    16.44    17.61    18.91    20.39    22.02    23.77    25.75    
 27.89    30.08    32.39    34.74    37.28    39.85    42.53    45.23    48.05    50.97    
 49.83    
46859.91 48776.43 50613.69 52462.34 54122.38 55828.55 57359.44 58215.44 58604.07 58358.99 
 56764.88 55347.36 54212.31 53183.93 52192.52 51097.02 50147.87 49093.08 47852.92 46562.90 
 45104.05 43547.43 42001.99 40276.12 38653.06 37203.44 35887.67 34716.65 33547.52 32654.84 
 31977.25 31457.99 31036.41 30627.71 30158.96 29721.79 29292.91 28896.22 28448.79 27823.53 
 27084.33 26311.96 25535.28 24790.64 24046.29 23197.65 22223.74 21200.64 20257.44 19355.01 
 18455.34 17613.33 16823.98 16051.15 15350.64 14638.76 13950.83 13206.95 12462.60 11758.90 
 11055.52 10352.14 9711.35  9078.89  8435.95  7808.35  7194.71  6595.01  5929.56  5259.89  
 4687.03  4213.82  3793.41  3400.26  3022.41  2705.24  2332.97  2041.88  1803.56  1593.76  
 1391.52  1233.68  1094.79  956.05   857.01   772.02   701.15   635.62   586.73   544.28   
 503.69   463.11   423.68   390.69   359.46   332.57   310.66   291.96   275.77   261.45   
 248.68   237.36   227.24   218.27   209.48   201.22   194.12   187.67   181.57   175.48   
 169.78   164.61   159.40   154.93   150.60   146.41   142.61   138.82   135.07   131.58   
 127.88   124.18   120.68   117.03   113.51   110.35   107.16   103.69   100.41   97.11    
 93.80    90.69    87.53    84.54    81.49    78.39    75.68    72.65    69.74    66.83    
 63.92    60.44    57.66    55.12    52.69    50.44    48.34    45.31    42.02    38.51    
 35.93    31.57    29.72    27.12    25.67    22.37    13.14    12.01    11.38    11.10    
 10.71    10.75    11.52    12.47    13.50    14.60    15.76    17.04    18.55    20.24    
 22.13    24.22    26.47    28.90    31.46    34.16    36.99    40.18    43.52    47.21    
 49.83    
46859.91 49106.62 51276.55 53387.52 55588.37 57598.38 58728.82 59242.29 58112.28 56670.56 
