IESNA:LM-63-2002
[TEST] 1
[TESTLAB] AOK
[TESTDATE] 2024-11-27
[ISSUEDATE] 2024-11-27 16:21:54
[NEARFIELD] 
[LAMPPOSITION] 0,0
[OTHER] EVERFINE GO-2000A_V1 SYSTEM
[MANUFAC] AOK
[LUMCAT] A
[LUMINAIRE] AoK-250WPLB-NV-L2-5070-T401-P
[LAMPCAT] B
[LAMP] 2835
[BALLAST] E
[BALLASTCAT] F
[OTHER] 
[OTHER] Gamma(deg)    Fz(lm)      Ft(lm)     %Lum    %Lamp
[OTHER]   0- 10       755.71      755.71     1.95     1.95
[OTHER]  10- 20      2242.42     2998.13     7.72     7.72
[OTHER]  20- 30      3650.22     6648.35    17.12    17.12
[OTHER]  30- 40      4990.74    11639.09    29.97    29.97
[OTHER]  40- 50      6229.70    17868.79    46.02    46.02
[OTHER]  50- 60      7215.42    25084.21    64.60    64.60
[OTHER]  60- 70      7776.96    32861.17    84.63    84.63
[OTHER]  70- 80      5266.51    38127.68    98.19    98.19
[OTHER]  80- 90       702.60    38830.28   100.00   100.00
[OTHER]  90-100         0.00    38830.28   100.00   100.00
[OTHER] 100-110         0.00    38830.28   100.00   100.00
[OTHER] 110-120         0.00    38830.28   100.00   100.00
[OTHER] 120-130         0.00    38830.28   100.00   100.00
[OTHER] 130-140         0.00    38830.28   100.00   100.00
[OTHER] 140-150         0.00    38830.28   100.00   100.00
[OTHER] 150-160         0.00    38830.28   100.00   100.00
[OTHER] 160-170         0.00    38830.28   100.00   100.00
[OTHER] 170-180         0.00    38830.28   100.00   100.00
[OTHER] 
TILT=NONE
1 38830 1 181 25 1 2 0.170 0.190 0.000
1.000 1 250.229
0.0    1.0    2.0    3.0    4.0    5.0    6.0    7.0    8.0    9.0    
 10.0   11.0   12.0   13.0   14.0   15.0   16.0   17.0   18.0   19.0   
 20.0   21.0   22.0   23.0   24.0   25.0   26.0   27.0   28.0   29.0   
 30.0   31.0   32.0   33.0   34.0   35.0   36.0   37.0   38.0   39.0   
 40.0   41.0   42.0   43.0   44.0   45.0   46.0   47.0   48.0   49.0   
 50.0   51.0   52.0   53.0   54.0   55.0   56.0   57.0   58.0   59.0   
 60.0   61.0   62.0   63.0   64.0   65.0   66.0   67.0   68.0   69.0   
 70.0   71.0   72.0   73.0   74.0   75.0   76.0   77.0   78.0   79.0   
 80.0   81.0   82.0   83.0   84.0   85.0   86.0   87.0   88.0   89.0   
 90.0   91.0   92.0   93.0   94.0   95.0   96.0   97.0   98.0   99.0   
 100.0  101.0  102.0  103.0  104.0  105.0  106.0  107.0  108.0  109.0  
 110.0  111.0  112.0  113.0  114.0  115.0  116.0  117.0  118.0  119.0  
 120.0  121.0  122.0  123.0  124.0  125.0  126.0  127.0  128.0  129.0  
 130.0  131.0  132.0  133.0  134.0  135.0  136.0  137.0  138.0  139.0  
 140.0  141.0  142.0  143.0  144.0  145.0  146.0  147.0  148.0  149.0  
 150.0  151.0  152.0  153.0  154.0  155.0  156.0  157.0  158.0  159.0  
 160.0  161.0  162.0  163.0  164.0  165.0  166.0  167.0  168.0  169.0  
 170.0  171.0  172.0  173.0  174.0  175.0  176.0  177.0  178.0  179.0  
 180.0  
0.0    15.0   30.0   45.0   60.0   75.0   90.0   105.0  120.0  135.0  
 150.0  165.0  180.0  195.0  210.0  225.0  240.0  255.0  270.0  285.0  
 300.0  315.0  330.0  345.0  360.0  
7907.69  7957.39  8021.13  8099.69  8170.87  8224.64  8288.41  8369.04  8440.67  8493.79  
 8552.96  8634.38  8705.18  8758.69  8809.92  8885.00  8949.26  8997.70  9039.26  9106.65  
 9170.18  9219.86  9261.00  9328.84  9394.88  9450.43  9497.07  9574.00  9653.53  9728.49  
 9787.09  9874.34  9969.47  10060.51 10128.90 10220.47 10325.70 10423.96 10498.06 10592.59 
 10702.85 10806.62 10879.78 10966.37 11062.33 11151.28 11211.69 11273.04 11357.43 11429.09 
 11474.09 11516.02 11583.42 11636.49 11666.81 11693.51 11745.69 11770.13 11762.86 11730.11 
 11705.90 11657.19 11580.11 11462.12 11339.03 11195.39 11004.23 10738.89 10392.35 9939.00  
 9421.27  8776.38  8035.83  7171.54  6111.34  4945.02  3785.37  2775.14  1906.40  1258.55  
 1004.60  754.98   653.90   558.26   453.49   272.61   142.44   83.38    25.17    8.36     
 0.00     0.00     0.00     0.00     0.00     0.00     0.00     0.00     0.00     0.00     
 0.00     0.00     0.00     0.00     0.00     0.00     0.00     0.00     0.00     0.00     
 0.00     0.00     0.00     0.00     0.00     0.00     0.00     0.00     0.00     0.00     
 0.00     0.00     0.00     0.00     0.00     0.00     0.00     0.00     0.00     0.00     
 0.00     0.00     0.00     0.00     0.00     0.00     0.00     0.00     0.00     0.00     
 0.00     0.00     0.00     0.00     0.00     0.00     0.00     0.00     0.00     0.00     
 0.00     0.00     0.00     0.00     0.00     0.00     0.00     0.00     0.00     0.00     
 0.00     0.00     0.00     0.00     0.00     0.00     0.00     0.00     0.00     0.00     
 0.00     0.00     0.00     0.00     0.00     0.00     0.00     0.00     0.00     0.00     
 0.00     
7907.69  7985.79  8052.05  8112.79  8169.96  8249.80  8322.34  8381.39  8437.08  8514.41  
 8589.09  8647.70  8700.59  8776.25  8852.14  8906.46  8951.70  9017.22  9089.22  9134.97  
 9177.61  9237.65  9312.26  9362.38  9408.84  9470.21  9550.80  9612.37  9668.59  9736.88  
 9833.79  9909.40  9978.74  10055.89 10159.89 10248.65 10328.97 10408.32 10519.15 10619.77 
 10708.15 10794.00 10911.65 11018.62 11107.34 11182.78 11283.46 11377.63 11449.76 11509.11 
 11597.48 11681.84 11743.33 11791.40 11862.42 11937.42 11984.45 12012.96 12045.25 12075.45 
 12061.10 12011.29 11952.84 11914.99 11831.97 11700.55 11557.88 11432.02 11247.67 10975.55 
 10592.65 10119.44 9537.24  8919.08  8238.33  7399.46  6382.66  5293.18  4189.52  3208.43  
 2229.27  1477.60  995.39   730.89   588.23   423.21   258.19   93.99    37.42    15.57    
 0.00     0.00     0.00     0.00     0.00     0.00     0.00     0.00     0.00     0.00     
 0.00     0.00     0.00     0.00     0.00     0.00     0.00     0.00     0.00     0.00     
 0.00     0.00     0.00     0.00     0.00     0.00     0.00     0.00     0.00     0.00     
 0.00     0.00     0.00     0.00     0.00     0.00     0.00     0.00     0.00     0.00     
 0.00     0.00     0.00     0.00     0.00     0.00     0.00     0.00     0.00     0.00     
 0.00     0.00     0.00     0.00     0.00     0.00     0.00     0.00     0.00     0.00     
 0.00     0.00     0.00     0.00     0.00     0.00     0.00     0.00     0.00     0.00     
 0.00     0.00     0.00     0.00     0.00     0.00     0.00     0.00     0.00     0.00     
 0.00     0.00     0.00     0.00     0.00     0.00     0.00     0.00     0.00     0.00     
 0.00     
7907.69  7972.63  8026.18  8075.83  8147.67  8216.63  8271.50  8319.91  8391.29  8458.75  
 8516.94  8565.39  8633.85  8703.80  8762.43  8806.67  8869.06  8933.07  8989.13  9021.64  
 9076.49  9141.25  9202.35  9239.08  9296.10  9363.82  9428.72  9472.07  9528.72  9606.05  
 9676.10  9729.30  9791.94  9883.19  9970.16  10039.89 10115.29 10223.49 10326.30 10413.42 
 10499.50 10621.17 10741.60 10844.83 10941.58 11065.50 11183.86 11284.95 11360.69 11463.44 
 11561.58 11648.22 11710.84 11800.82 11895.74 11981.07 12041.98 12131.12 12227.72 12314.74 
 12359.69 12403.25 12442.74 12463.74 12454.78 12460.12 12476.94 12462.46 12405.28 12340.48 
 12288.20 12192.41 11980.07 11677.21 11343.06 10929.37 10479.10 9875.44  9155.97  8298.51  
 7319.99  6030.16  4665.66  3299.09  2042.66  1125.54  630.15   139.92   75.69    16.51    
 0.00     0.00     0.00     0.00     0.00     0.00     0.00     0.00     0.00     0.00     
 0.00     0.00     0.00     0.00     0.00     0.00     0.00     0.00     0.00     0.00     
 0.00     0.00     0.00     0.00     0.00     0.00     0.00     0.00     0.00     0.00     
 0.00     0.00     0.00     0.00     0.00     0.00     0.00     0.00     0.00     0.00     
 0.00     0.00     0.00     0.00     0.00     0.00     0.00     0.00     0.00     0.00     
 0.00     0.00     0.00     0.00     0.00     0.00     0.00     0.00     0.00     0.00     
 0.00     0.00     0.00     0.00     0.00     0.00     0.00     0.00     0.00     0.00     
 0.00     0.00     0.00     0.00     0.00     0.00     0.00     0.00     0.00     0.00     
 0.00     0.00     0.00     0.00     0.00     0.00     0.00     0.00     0.00     0.00     
 0.00     
7907.69  7959.37  8002.21  8044.41  8108.81  8164.29  8208.78  8248.06  8312.74  8369.49  
 8413.96  8449.38  8510.04  8569.73  8614.19  8649.61  8707.33  8767.40  8809.74  8843.29  
 8894.28  8956.07  8998.43  9032.49  9081.42  9146.13  9189.36  9227.23  9277.90  9347.70  
 9397.17  9442.23  9498.42  9579.75  9645.07  9709.17  9778.16  9876.93  9966.82  10050.88 
 10141.51 10259.11 10373.56 10476.66 10580.35 10706.26 10821.04 10913.47 10999.00 11113.56 
 11229.61 11324.60 11415.72 11540.56 11669.35 11774.94 11874.87 12002.26 12144.16 12259.89 
 12365.69 12490.06 12620.42 12719.61 12809.80 12910.75 13008.84 13063.83 13099.19 13101.71 
 13150.76 13180.81 13156.56 13079.97 13021.69 12687.60 11971.06 11145.94 10485.39 9612.57  
 8362.94  6641.59  4711.45  3219.03  1733.94  1015.58  698.10   380.61   65.24    19.68    
 0.00     0.00     0.00     0.00     0.00     0.00     0.00     0.00     0.00     0.00     
 0.00     0.00     0.00     0.00     0.00     0.00     0.00     0.00     0.00     0.00     
 0.00     0.00     0.00     0.00     0.00     0.00     0.00     0.00     0.00     0.00     
 0.00     0.00     0.00     0.00     0.00     0.00     0.00     0.00     0.00     0.00     
 0.00     0.00     0.00     0.00     0.00     0.00     0.00     0.00     0.00     0.00     
 0.00     0.00     0.00     0.00     0.00     0.00     0.00     0.00     0.00     0.00     
 0.00     0.00     0.00     0.00     0.00     0.00     0.00     0.00     0.00     0.00     
 0.00     0.00     0.00     0.00     0.00     0.00     0.00     0.00     0.00     0.00     
 0.00     0.00     0.00     0.00     0.00     0.00     0.00     0.00     0.00     0.00     
 0.00     
7907.69  7955.54  7999.73  8024.14  8058.00  8107.38  8150.34  8175.19  8205.68  8254.70  
 8295.97  8321.20  8344.15  8391.85  8434.36  8460.01  8479.54  8525.90  8566.30  8594.47  
 8615.78  8660.92  8703.40  8735.36  8756.70  8801.45  8847.29  8887.56  8914.48  8965.12  
 9023.19  9077.16  9115.55  9177.25  9252.67  9329.49  9387.01  9468.68  9567.99  9666.91  
 9746.96  9843.12  9960.88  10062.95 10145.11 10231.66 10348.07 10456.42 10550.81 10650.93 
 10787.31 10916.04 11030.41 11144.61 11296.98 11447.29 11585.81 11722.53 11899.54 12077.40 
 12235.53 12371.65 12555.28 12748.75 12933.52 13082.11 13226.49 13342.28 13408.64 13371.56 
 13242.21 12816.13 12153.01 11224.56 10239.91 9192.12  8117.56  6972.61  5824.32  4623.53  
 3433.48  2267.08  1416.42  930.28   447.87   248.18   142.54   89.71    37.51    15.54    
 0.00     0.00     0.00     0.00     0.00     0.00     0.00     0.00     0.00     0.00     
 0.00     0.00     0.00     0.00     0.00     0.00     0.00     0.00     0.00     0.00     
 0.00     0.00     0.00     0.00     0.00     0.00     0.00     0.00     0.00     0.00     
 0.00     0.00     0.00     0.00     0.00     0.00     0.00     0.00     0.00     0.00     
 0.00     0.00     0.00     0.00     0.00     0.00     0.00     0.00     0.00     0.00     
 0.00     0.00     0.00     0.00     0.00     0.00     0.00     0.00     0.00     0.00     
 0.00     0.00     0.00     0.00     0.00     0.00     0.00     0.00     0.00     0.00     
 0.00     0.00     0.00     0.00     0.00     0.00     0.00     0.00     0.00     0.00     
 0.00     0.00     0.00     0.00     0.00     0.00     0.00     0.00     0.00     0.00     
 0.00     
7907.69  7923.34  7934.98  7969.27  7997.56  8012.76  8021.44  8050.70  8080.17  8092.83  
 8097.65  8122.70  8151.37  8161.06  8163.34  8184.19  8212.41  8221.27  8225.20  8241.37  
 8270.48  8280.19  8285.35  8299.07  8331.13  8344.27  8357.45  8374.64  8416.08  8445.72  
 8471.57  8505.25  8563.71  8615.40  8662.50  8714.06  8795.42  8871.64  8937.79  9005.02  
 9096.97  9182.68  9251.80  9322.85  9425.47  9529.21  9617.40  9705.03  9826.38  9957.24  
 10071.29 10185.21 10329.59 10495.60 10641.05 10789.64 10962.39 11158.07 11329.33 11497.42 
 11687.30 11915.47 12104.78 12271.97 12368.48 12479.29 12552.68 12522.84 12211.68 11602.52 
 10760.44 9818.59  8903.80  7916.48  6856.19  5720.83  4577.46  3616.50  2655.55  1697.51  
 1089.10  703.04   435.34   345.07   254.80   164.89   110.53   64.75    32.29    15.57    
 0.00     0.00     0.00     0.00     0.00     0.00     0.00     0.00     0.00     0.00     
 0.00     0.00     0.00     0.00     0.00     0.00     0.00     0.00     0.00     0.00     
 0.00     0.00     0.00     0.00     0.00     0.00     0.00     0.00     0.00     0.00     
 0.00     0.00     0.00     0.00     0.00     0.00     0.00     0.00     0.00     0.00     
 0.00     0.00     0.00     0.00     0.00     0.00     0.00     0.00     0.00     0.00     
 0.00     0.00     0.00     0.00     0.00     0.00     0.00     0.00     0.00     0.00     
 0.00     0.00     0.00     0.00     0.00     0.00     0.00     0.00     0.00     0.00     
 0.00     0.00     0.00     0.00     0.00     0.00     0.00     0.00     0.00     0.00     
 0.00     0.00     0.00     0.00     0.00     0.00     0.00     0.00     0.00     0.00     
 0.00     
7907.69  7924.16  7938.80  7938.70  7930.89  7941.95  7957.37  7954.74  7944.77  7949.52  
 7963.27  7957.69  7945.12  7943.15  7953.50  7944.95  7928.54  7919.90  7930.65  7921.30  
 7906.14  7897.03  7905.76  7901.04  7890.51  7883.55  7896.58  7902.85  7902.85  7903.17  
 7928.46  7951.64  7966.46  7983.26  8027.25  8071.55  8104.90  8133.14  8188.60  8247.66  
 8293.27  8333.59  8397.56  8471.03  8531.51  8591.42  8675.76  8774.17  8859.58  8941.46  
 9044.11  9168.70  9277.41  9386.38  9508.86  9652.50  9778.90  9898.74  10030.15 10185.11 
 10316.04 10429.57 10522.29 10620.73 10675.65 10655.75 10551.37 10297.70 9900.88  9425.84  
 8950.30  8431.02  7819.60  7124.03  6383.51  5622.73  4843.12  4023.75  3283.95  2544.15  
 1807.05  1306.96  852.96   581.63   426.98   272.34   118.61   56.36    20.49    10.51    
 0.00     0.00     0.00     0.00     0.00     0.00     0.00     0.00     0.00     0.00     
 0.00     0.00     0.00     0.00     0.00     0.00     0.00     0.00     0.00     0.00     
 0.00     0.00     0.00     0.00     0.00     0.00     0.00     0.00     0.00     0.00     
 0.00     0.00     0.00     0.00     0.00     0.00     0.00     0.00     0.00     0.00     
 0.00     0.00     0.00     0.00     0.00     0.00     0.00     0.00     0.00     0.00     
 0.00     0.00     0.00     0.00     0.00     0.00     0.00     0.00     0.00     0.00     
 0.00     0.00     0.00     0.00     0.00     0.00     0.00     0.00     0.00     0.00     
 0.00     0.00     0.00     0.00     0.00     0.00     0.00     0.00     0.00     0.00     
 0.00     0.00     0.00     0.00     0.00     0.00     0.00     0.00     0.00     0.00     
 0.00     
7907.69  7901.39  7875.36  7863.00  7860.39  7851.59  7825.14  7807.73  7804.22  7794.98  
 7767.68  7743.57  7737.09  7723.63  7695.02  7663.77  7653.92  7637.51  7607.23  7571.37  
 7559.74  7542.89  7515.10  7480.93  7467.66  7454.99  7434.77  7405.34  7399.19  7395.79  
 7386.97  7364.70  7365.76  7373.73  7377.57  7365.03  7371.21  7387.19  7402.78  7402.52  
 7419.25  7447.87  7476.18  7489.41  7515.07  7558.86  7599.86  7628.69  7663.70  7718.06  
 7768.22  7806.37  7843.97  7906.68  7964.61  8007.41  8042.96  8098.56  8138.40  8153.80  
 8146.37  8139.21  8097.72  8005.27  7865.86  7699.65  7475.83  7136.31  6643.30  6124.70  
 5677.99  5194.96  4696.23  4188.09  3667.71  3132.58  2627.86  2135.98  1634.17  1179.60  
 839.45   500.23   341.55   249.25   183.35   124.34   79.56    34.92    15.77    11.56    
 0.00     0.00     0.00     0.00     0.00     0.00     0.00     0.00     0.00     0.00     
 0.00     0.00     0.00     0.00     0.00     0.00     0.00     0.00     0.00     0.00     
 0.00     0.00     0.00     0.00     0.00     0.00     0.00     0.00     0.00     0.00     
 0.00     0.00     0.00     0.00     0.00     0.00     0.00     0.00     0.00     0.00     
 0.00     0.00     0.00     0.00     0.00     0.00     0.00     0.00     0.00     0.00     
 0.00     0.00     0.00     0.00     0.00     0.00     0.00     0.00     0.00     0.00     
 0.00     0.00     0.00     0.00     0.00     0.00     0.00     0.00     0.00     0.00     
 0.00     0.00     0.00     0.00     0.00     0.00     0.00     0.00     0.00     0.00     
 0.00     0.00     0.00     0.00     0.00     0.00     0.00     0.00     0.00     0.00     
 0.00     
7907.69  7887.01  7872.42  7840.58  7800.97  7776.55  7762.78  7730.95  7693.46  7664.42  
 7651.07  7616.73  7577.82  7542.05  7524.49  7489.69  7447.37  7406.53  7383.10  7348.39  
 7304.78  7260.12  7235.03  7199.80  7156.17  7110.28  7086.09  7056.32  7015.63  6971.44  
 6947.38  6923.15  6889.23  6850.49  6831.06  6815.24  6785.59  6754.45  6739.31  6732.38  
 6712.46  6690.61  6679.31  6679.97  6663.41  6641.89  6627.23  6625.72  6604.06  6575.71  
 6548.72  6529.83  6490.25  6434.01  6368.43  6306.81  6222.75  6116.31  5993.51  5866.99  
 5709.12  5517.81  5295.59  5074.85  4839.45  4578.65  4314.88  4047.88  3752.91  3427.43  
 3070.07  2712.70  2355.54  2013.70  1616.18  1193.97  843.78   646.14   562.01   494.50   
 422.51   360.47   293.39   226.31   159.46   111.21   70.45    31.37    18.15    14.43    
 0.00     0.00     0.00     0.00     0.00     0.00     0.00     0.00     0.00     0.00     
 0.00     0.00     0.00     0.00     0.00     0.00     0.00     0.00     0.00     0.00     
 0.00     0.00     0.00     0.00     0.00     0.00     0.00     0.00     0.00     0.00     
 0.00     0.00     0.00     0.00     0.00     0.00     0.00     0.00     0.00     0.00     
 0.00     0.00     0.00     0.00     0.00     0.00     0.00     0.00     0.00     0.00     
 0.00     0.00     0.00     0.00     0.00     0.00     0.00     0.00     0.00     0.00     
 0.00     0.00     0.00     0.00     0.00     0.00     0.00     0.00     0.00     0.00     
 0.00     0.00     0.00     0.00     0.00     0.00     0.00     0.00     0.00     0.00     
 0.00     0.00     0.00     0.00     0.00     0.00     0.00     0.00     0.00     0.00     
 0.00     
7907.69  7856.22  7806.73  7779.08  7744.04  7697.74  7647.88  7620.60  7588.09  7545.05  
 7492.28  7462.07  7427.85  7382.28  7328.22  7289.20  7250.40  7205.64  7147.42  7107.08  
 7068.17  7022.56  6959.28  6912.63  6872.41  6828.46  6769.38  6725.83  6691.91  6653.89  
 6602.43  6561.32  6534.55  6502.46  6456.07  6410.82  6379.00  6337.63  6282.08  6225.84  
 6184.68  6136.54  6072.00  5996.83  5929.53  5854.33  5762.71  5657.94  5564.41  5461.73  
 5343.76  5202.76  5068.23  4929.58  4788.37  4639.60  4502.07  4360.46  4203.28  4018.29  
 3824.28  3612.72  3384.13  3134.01  2885.78  2640.92  2403.64  2179.00  1969.14  1776.19  
 1598.89  1425.08  1268.50  1134.80  1001.33  884.94   785.95   703.40   622.13   544.84   
 466.73   380.48   302.16   232.63   170.78   122.50   74.36    26.22    11.98    8.09     
 0.00     0.00     0.00     0.00     0.00     0.00     0.00     0.00     0.00     0.00     
 0.00     0.00     0.00     0.00     0.00     0.00     0.00     0.00     0.00     0.00     
 0.00     0.00     0.00     0.00     0.00     0.00     0.00     0.00     0.00     0.00     
 0.00     0.00     0.00     0.00     0.00     0.00     0.00     0.00     0.00     0.00     
 0.00     0.00     0.00     0.00     0.00     0.00     0.00     0.00     0.00     0.00     
 0.00     0.00     0.00     0.00     0.00     0.00     0.00     0.00     0.00     0.00     
 0.00     0.00     0.00     0.00     0.00     0.00     0.00     0.00     0.00     0.00     
 0.00     0.00     0.00     0.00     0.00     0.00     0.00     0.00     0.00     0.00     
 0.00     0.00     0.00     0.00     0.00     0.00     0.00     0.00     0.00     0.00     
 0.00     
7907.69  7868.20  7820.63  7762.57  7702.69  7665.78  7624.53  7570.65  7510.46  7471.90  
