IESNA:LM-63-2002
[TEST] 1
[TESTLAB] AOK
[TESTDATE] 2022-05-13
[ISSUEDATE] 2022-05-13 18:23:58
[NEARFIELD] 
[LAMPPOSITION] 0,0
[OTHER] EVERFINE GO-2000A_V1 SYSTEM
[MANUFAC] AOK
[LUMCAT] A
[LUMINAIRE] AOK-400WiSF-HVY-S5-00-5070-30D-P
[LAMPCAT] B
[LAMP] 5050
[BALLAST] E
[BALLASTCAT] F
[OTHER] 
[OTHER] Gamma(deg)    Fz(lm)      Ft(lm)     %Lum    %Lamp
[OTHER]   0- 10     11187.01    11187.01    19.98    19.98
[OTHER]  10- 20     16861.75    28048.76    50.09    50.09
[OTHER]  20- 30     10307.24    38356.00    68.50    68.50
[OTHER]  30- 40      7249.24    45605.24    81.44    81.44
[OTHER]  40- 50      4588.86    50194.11    89.64    89.64
[OTHER]  50- 60      2623.25    52817.36    94.32    94.32
[OTHER]  60- 70      1553.70    54371.06    97.10    97.10
[OTHER]  70- 80       741.47    55112.53    98.42    98.42
[OTHER]  80- 90       304.64    55417.17    98.97    98.97
[OTHER]  90-100       155.21    55572.38    99.24    99.24
[OTHER] 100-110       106.23    55678.61    99.43    99.43
[OTHER] 110-120        84.19    55762.80    99.58    99.58
[OTHER] 120-130        65.31    55828.11    99.70    99.70
[OTHER] 130-140        50.15    55878.26    99.79    99.79
[OTHER] 140-150        41.93    55920.19    99.86    99.86
[OTHER] 150-160        38.43    55958.62    99.93    99.93
[OTHER] 160-170        27.36    55985.98    99.98    99.98
[OTHER] 170-180         9.84    55995.82   100.00   100.00
[OTHER] 
TILT=NONE
1 55996 1 181 25 1 2 0.150 0.200 0.000
1.000 1 402.11
0.0    1.0    2.0    3.0    4.0    5.0    6.0    7.0    8.0    9.0    
 10.0   11.0   12.0   13.0   14.0   15.0   16.0   17.0   18.0   19.0   
 20.0   21.0   22.0   23.0   24.0   25.0   26.0   27.0   28.0   29.0   
 30.0   31.0   32.0   33.0   34.0   35.0   36.0   37.0   38.0   39.0   
 40.0   41.0   42.0   43.0   44.0   45.0   46.0   47.0   48.0   49.0   
 50.0   51.0   52.0   53.0   54.0   55.0   56.0   57.0   58.0   59.0   
 60.0   61.0   62.0   63.0   64.0   65.0   66.0   67.0   68.0   69.0   
 70.0   71.0   72.0   73.0   74.0   75.0   76.0   77.0   78.0   79.0   
 80.0   81.0   82.0   83.0   84.0   85.0   86.0   87.0   88.0   89.0   
 90.0   91.0   92.0   93.0   94.0   95.0   96.0   97.0   98.0   99.0   
 100.0  101.0  102.0  103.0  104.0  105.0  106.0  107.0  108.0  109.0  
 110.0  111.0  112.0  113.0  114.0  115.0  116.0  117.0  118.0  119.0  
 120.0  121.0  122.0  123.0  124.0  125.0  126.0  127.0  128.0  129.0  
 130.0  131.0  132.0  133.0  134.0  135.0  136.0  137.0  138.0  139.0  
 140.0  141.0  142.0  143.0  144.0  145.0  146.0  147.0  148.0  149.0  
 150.0  151.0  152.0  153.0  154.0  155.0  156.0  157.0  158.0  159.0  
 160.0  161.0  162.0  163.0  164.0  165.0  166.0  167.0  168.0  169.0  
 170.0  171.0  172.0  173.0  174.0  175.0  176.0  177.0  178.0  179.0  
 180.0  
0.0    15.0   30.0   45.0   60.0   75.0   90.0   105.0  120.0  135.0  
 150.0  165.0  180.0  195.0  210.0  225.0  240.0  255.0  270.0  285.0  
 300.0  315.0  330.0  345.0  360.0  
130560.75 128493.68 128170.85 127894.58 116672.77 100534.96 88183.23 76429.24 61042.61 52271.84 
 38389.41 26771.66 15639.33 12456.57 9360.57  6264.57  3168.57  72.58    25.03    20.37    
 17.74    15.94    14.63    12.91    11.31    10.13    9.30     8.82     8.76     8.80     
 8.56     6.99     6.01     5.61     5.61     5.73     5.93     6.09     5.86     5.72     
 5.53     5.44     5.29     5.22     4.96     4.82     4.89     4.91     4.76     4.48     
 4.25     4.21     4.09     4.01     3.96     3.94     3.80     3.69     3.59     3.47     
 3.37     3.33     3.30     3.23     3.16     3.07     2.99     2.92     2.85     2.78     
 2.70     2.65     2.60     2.57     2.55     2.54     2.53     2.53     2.53     2.55     
 2.60     2.65     2.70     2.80     2.98     3.14     3.26     3.34     3.44     3.53     
 3.63     3.76     3.86     3.92     3.99     4.08     4.21     4.36     4.55     4.78     
 5.05     5.34     5.65     5.99     6.38     6.77     7.19     7.60     8.04     8.52     
 9.01     9.51     10.05    10.64    11.29    11.97    12.71    13.51    14.39    15.32    
 16.30    17.29    18.41    19.62    20.89    22.22    23.67    25.19    26.83    28.55    
 30.32    32.19    34.11    36.15    38.31    40.61    42.99    45.53    48.21    51.12    
 54.33    57.78    61.60    65.74    70.26    75.19    80.47    85.94    91.64    97.70    
 104.05   110.39   116.63   122.64   128.41   133.98   139.36   144.29   148.77   152.92   
 156.85   160.35   163.10   165.09   166.19   166.27   165.47   163.55   160.63   157.14   
 152.91   148.31   143.62   138.66   133.77   128.58   123.30   117.68   111.66   104.80   
 96.86    
130560.75 127842.68 127376.89 126927.60 123348.20 103013.81 92520.85 81799.02 66806.45 58606.66 
 43788.74 33001.25 22213.76 11426.27 733.78   608.18   545.64   279.27   222.70   205.60   
 188.51   171.05   108.59   142.78   112.28   61.72    33.07    24.71    19.44    16.32    
 13.93    11.92    10.01    8.53     7.85     7.39     7.13     7.04     7.04     6.85     
 6.53     6.27     5.97     5.72     5.52     5.30     5.06     4.87     4.67     4.44     
 4.21     4.08     3.94     3.80     3.65     3.50     3.35     3.23     3.13     3.05     
 2.96     2.88     2.82     2.74     2.69     2.63     2.59     2.54     2.50     2.45     
 2.41     2.35     2.29     2.29     2.28     2.27     2.26     2.25     2.24     2.25     
 2.27     2.29     2.32     2.37     2.42     2.49     2.57     2.66     2.75     2.86     
 2.99     3.12     3.25     3.38     3.52     3.69     3.87     4.06     4.28     4.52     
 4.78     5.06     5.37     5.69     6.04     6.40     6.78     7.18     7.62     8.10     
 8.59     9.10     9.65     10.25    10.88    11.56    12.28    13.05    13.86    14.76    
 15.74    16.78    17.90    19.08    20.29    21.64    23.09    24.62    26.21    27.90    
 29.64    31.47    33.40    35.40    37.50    39.69    42.04    44.55    47.19    50.05    
 53.21    56.64    60.38    64.50    68.93    73.74    78.83    84.29    89.98    96.03    
 102.25   108.47   114.55   120.71   126.58   132.23   137.57   142.49   147.24   151.55   
 155.58   159.24   162.11   164.29   165.56   165.83   165.22   163.65   161.16   158.08   
 154.37   150.23   146.00   141.62   137.06   132.33   127.04   121.10   114.66   107.63   
 96.86    
130560.75 127945.82 127278.41 126719.03 125911.84 112903.81 98425.11 87802.36 78591.28 62624.53 
 54707.37 41702.81 32777.22 22619.41 14314.49 10869.68 7475.32  4080.96  686.60   550.83   
 348.10   228.42   237.79   171.66   154.00   152.53   131.37   110.00   88.63    66.88    
 65.56    54.63    44.83    44.96    38.08    32.27    33.11    27.46    26.43    24.25    
 24.19    23.55    21.38    18.51    17.98    16.02    14.57    13.35    12.70    11.03    
 9.48     8.78     7.24     6.15     5.58     5.32     5.09     4.74     4.34     4.00     
 3.68     3.41     3.20     3.06     2.93     2.78     2.63     2.50     2.41     2.33     
 2.27     2.22     2.19     2.17     2.14     2.12     2.10     2.07     2.05     2.04     
 2.04     2.03     2.06     2.12     2.19     2.27     2.36     2.46     2.57     2.70     
 2.83     2.98     3.14     3.31     3.49     3.68     3.88     4.10     4.32     4.55     
 4.80     5.05     5.32     5.59     5.90     6.23     6.59     6.96     7.37     7.81     
 8.29     8.79     9.32     9.90     10.54    11.21    11.91    12.68    13.52    14.41    
 15.35    16.33    17.42    18.58    19.83    21.09    22.44    23.91    25.43    27.03    
 28.73    30.45    32.26    34.15    36.22    38.46    40.84    43.37    46.07    49.00    
 52.13    55.51    59.35    63.60    68.16    73.00    78.12    83.40    89.00    94.96    
 101.07   107.15   113.13   118.91   124.62   130.28   135.70   140.76   145.76   150.39   
 154.34   157.66   160.32   162.21   163.43   163.86   163.41   162.21   160.43   158.01   
 155.09   151.75   148.19   144.62   140.29   135.55   130.02   124.35   118.43   112.33   
 96.86    
130560.75 128462.17 126892.02 126242.60 125431.40 124107.70 116059.08 100124.74 89653.11 77994.94 
 70128.55 56949.21 46619.54 40756.74 29594.65 22966.54 16364.43 12485.91 6837.83  1229.84  
 1011.22  744.84   489.38   359.05   312.12   252.16   192.33   146.39   112.37   92.93    
 80.97    71.70    64.66    58.41    53.25    48.50    43.73    40.16    36.39    32.71    
 29.23    25.34    22.64    21.03    20.06    18.91    17.94    16.90    15.80    14.59    
 13.36    12.25    11.16    10.10    9.16     8.40     7.83     7.35     6.88     6.43     
 6.03     5.63     5.26     4.92     4.65     4.42     4.19     3.97     3.75     3.52     
 3.28     3.07     2.87     2.70     2.55     2.42     2.29     2.19     2.10     2.02     
 1.93     1.90     1.90     1.93     1.99     2.07     2.15     2.25     2.36     2.48     
 2.60     2.74     2.88     3.04     3.21     3.38     3.55     3.74     3.94     4.15     
 4.37     4.60     4.85     5.13     5.42     5.72     6.06     6.42     6.81     7.22     
 7.70     8.20     8.73     9.26     9.84     10.47    11.16    11.89    12.66    13.45    
 14.30    15.27    16.27    17.31    18.36    19.52    20.74    22.04    23.42    24.89    
 26.41    28.03    29.78    31.60    33.52    35.61    37.89    40.31    42.85    45.68    
 48.83    52.19    55.81    59.79    64.03    68.67    73.54    78.71    83.99    89.67    
 95.46    101.26   107.03   113.02   118.89   124.59   130.12   135.19   140.03   144.38   
 148.23   151.55   154.25   156.34   157.81   158.71   158.93   158.51   157.49   156.01   
 154.14   151.70   149.37   146.33   142.73   138.78   134.35   129.06   123.85   118.68   
 96.86    
130560.75 129111.46 127259.81 126068.43 125120.11 122823.13 119379.88 115156.82 111289.39 98538.64 
 85210.54 75912.40 67139.85 57216.84 50171.44 40997.53 31527.88 26158.09 22402.79 15808.71 
 12231.09 9588.71  6956.88  5761.08  3823.44  1283.14  1012.73  766.19   570.26   416.74   
 313.33   239.80   197.75   170.77   147.78   126.34   110.02   93.75    80.67    69.40    
 59.73    51.54    45.12    39.45    34.94    31.29    27.97    25.39    22.84    20.19    
 17.14    14.59    13.02    12.12    11.37    10.67    10.08    9.56     9.06     8.56     
 8.07     7.69     7.33     6.97     6.69     6.41     6.15     5.93     5.75     5.57     
 5.43     5.26     5.07     4.86     4.61     4.37     4.09     3.78     3.48     3.17     
 2.86     2.51     2.19     2.07     2.06     2.10     2.18     2.27     2.37     2.47     
 2.58     2.71     2.84     2.98     3.13     3.29     3.46     3.63     3.83     4.04     
 4.26     4.50     4.75     5.02     5.32     5.63     5.96     6.31     6.68     7.08     
 7.52     7.97     8.45     8.95     9.50     10.08    10.69    11.34    12.06    12.81    
 13.59    14.42    15.33    16.27    17.25    18.25    19.37    20.59    21.85    23.20    
 24.61    26.08    27.62    29.26    31.09    33.11    35.24    37.57    40.10    42.82    
 45.73    48.93    52.40    56.36    60.64    65.16    69.93    74.84    79.92    85.24    
 90.95    96.68    102.39   107.97   113.34   118.52   123.82   128.88   133.56   137.83   
 141.69   145.34   148.42   151.10   153.27   154.93   156.04   156.58   157.15   156.41   
 154.86   153.20   151.65   149.19   146.41   143.24   139.68   135.60   131.03   126.63   
 96.86    
130560.75 129906.37 128870.59 127437.99 125630.85 122474.19 118880.56 115241.60 111382.63 106150.18 
 100981.09 95345.05 88017.42 80886.65 73306.33 65634.50 58263.62 49034.67 40858.88 33811.12 
 28399.39 25040.66 21685.33 18749.14 16204.92 14174.36 12735.86 11300.40 9803.65  7913.39  
 6784.66  5928.07  5168.31  4479.22  3641.71  3058.19  2673.41  2287.58  1788.40  1460.16  
 1192.98  932.75   668.45   513.30   424.04   340.83   267.14   193.77   155.67   123.55   
 98.65    80.61    66.97    55.94    48.55    41.84    36.58    32.48    28.65    25.73    
 23.27    21.43    19.82    18.12    16.58    14.90    13.30    12.26    11.90    11.67    
 11.51    11.32    11.18    10.93    10.71    10.50    10.36    10.15    9.93     9.54     
 8.79     7.70     6.24     4.51     2.15     1.72     1.77     1.83     1.91     1.98     
 2.07     2.16     2.26     2.37     2.49     2.62     2.76     2.90     3.07     3.24     
 3.42     3.60     3.81     4.04     4.27     4.52     4.79     5.07     5.39     5.72     
 6.08     6.46     6.89     7.36     7.85     8.35     8.89     9.44     10.01    10.64    
 11.30    12.03    12.80    13.60    14.41    15.31    16.29    17.32    18.39    19.53    
 20.74    22.02    23.41    24.89    26.46    28.15    30.03    32.03    34.22    36.62    
 39.35    42.24    45.45    48.94    52.71    56.91    61.29    65.96    70.86    76.07    
 81.42    86.85    92.23    97.86    103.39   108.88   114.32   119.52   124.70   129.62   
 134.31   138.71   142.76   146.54   149.85   152.76   155.09   157.49   158.69   159.18   
 158.66   158.14   157.51   155.80   153.63   151.10   148.16   144.71   140.77   136.72   
 96.86    
130560.75 130436.18 130193.21 129568.16 128527.06 125891.51 122354.18 118635.59 114854.09 109687.74 
 104424.65 98578.58 92302.15 85523.66 78163.64 70163.81 62565.54 55680.86 49628.64 43578.31 
 38416.58 33993.80 30599.00 28032.19 25993.99 23955.79 21922.11 20268.78 18898.84 17580.27 
 16233.28 15097.94 13986.53 13061.67 12126.70 11287.95 10565.99 9846.28  9147.50  8466.94  
 7843.61  7243.39  6680.60  6113.55  5597.47  5147.88  4723.99  4316.13  3916.47  3536.23  
 3214.53  2924.65  2663.15  2402.06  2180.65  1994.23  1818.23  1661.32  1521.84  1383.14  
 1259.99  1142.64  1039.76  942.21   849.73   762.69   681.62   608.91   538.57   473.15   
 414.69   363.85   318.64   277.59   240.81   204.09   173.61   148.66   128.10   111.24   
 95.59    81.43    69.46    58.09    46.96    33.46    7.25     2.97     1.28     1.07     
 1.01     1.00     0.99     0.89     0.90     0.90     0.92     0.93     0.95     0.98     
 1.00     1.02     1.04     1.06     1.09     1.12     1.15     1.19     1.22     1.27     
 1.30     1.34     1.39     1.45     1.50     1.56     1.64     1.71     1.79     1.88     
 1.98     2.08     2.19     2.32     2.46     2.61     2.77     2.95     3.14     3.35     
 3.58     3.83     4.11     4.41     4.73     5.08     5.47     5.89     6.35     6.89     
 7.46     8.08     8.73     9.46     10.23    11.10    12.03    13.03    14.06    15.20    
 16.40    17.64    18.96    20.34    21.77    23.29    24.88    26.60    28.42    30.34    
 32.32    34.40    36.54    38.78    41.18    43.69    46.32    49.29    52.56    55.25    
 58.71    62.29    66.78    71.67    76.80    82.17    87.71    93.32    99.19    105.23   
 96.86    
130560.75 131315.42 131843.48 131851.52 131254.07 129307.82 126371.32 122848.64 119134.78 114708.06 
 109911.32 104336.63 98348.04 91703.53 84559.30 77035.28 69970.91 63238.12 56958.71 50877.18 
 45291.28 40804.45 37192.97 34098.99 31645.94 29435.43 27578.92 25895.90 24331.94 22828.38 
 21428.08 20151.20 18958.44 17845.46 16796.42 15830.96 14893.86 14063.80 13272.34 12550.06 
 11741.61 11063.10 10385.83 9725.29  9083.74  8463.99  7876.08  7294.06  6770.63  6288.97  
 5835.74  5408.70  5027.14  4674.06  4367.29  4096.99  3840.64  3606.05  3405.72  3220.10  
 3031.79  2860.77  2696.62  2534.13  2376.87  2229.26  2084.55  1949.48  1815.69  1682.72  
 1560.18  1446.55  1341.29  1238.61  1145.19  1051.86  958.53   876.83   802.02   733.22   
 667.41   609.17   552.46   499.97   455.81   415.61   379.67   348.94   321.76   298.96   
 279.92   262.02   243.45   226.86   211.27   197.16   184.09   172.72   162.10   151.65   
 142.59   134.14   126.73   119.33   111.92   105.70   100.27   95.20    90.50    86.73    
 82.74    79.12    76.02    72.90    69.41    66.21    63.16    59.86    56.80    53.79    
 50.97    47.87    44.99    42.38    39.45    36.51    33.54    30.53    27.20    23.67    
 19.72    15.03    11.30    8.65     6.81     5.28     4.13     3.91     4.18     4.56     
 4.98     5.46     5.99     6.54     7.14     7.79     8.51     9.26     10.05    10.90    
 11.78    12.71    13.67    14.71    15.80    16.94    18.13    19.42    20.82    22.26    
 23.77    25.38    27.13    29.02    31.13    33.35    35.76    38.24    41.03    44.66    
 47.92    51.16    55.48    60.17    65.50    71.16    77.14    83.43    89.95    96.69    
 96.86    
130560.75 132088.19 133269.77 133939.64 134112.58 133697.78 132384.37 130271.54 127701.95 124558.61 
 120573.65 115949.15 110350.55 103575.50 95920.80 88413.69 80695.63 73176.05 66057.87 59457.38 
 53485.42 48788.68 44944.87 41690.46 38800.97 36019.87 33718.30 31534.36 29599.50 27687.35 
 26010.00 24456.32 22903.96 21476.79 20231.20 19053.68 17906.70 16904.18 15954.70 14987.55 
 14081.06 13254.78 12460.29 11738.06 11057.00 10327.58 9684.52  9021.37  8389.55  7797.54  
 7252.41  6741.90  6246.96  5780.14  5356.00  4992.38  4662.13  4375.84  4113.86  3874.62  
 3661.22  3464.22  3266.10  3074.41  2885.15  2726.25  2567.35  2408.52  2256.03  2105.71  
 1960.94  1821.49  1683.26  1556.75  1436.78  1320.00  1209.23  1105.68  1010.67  922.80   
 836.22   753.40   682.24   619.21   562.10   509.56   467.31   434.53   404.83   373.44   
 352.94   333.13   313.64   295.08   278.86   264.40   251.44   238.49   225.56   214.73   
 205.32   196.86   188.88   181.50   174.56   168.65   162.70   157.30   152.29   147.70   
 143.51   139.61   135.67   131.73   128.23   124.85   121.58   118.54   115.31   112.28   
 109.50   106.84   104.24   101.65   99.07    96.57    94.06    91.35    88.88    86.23    
 83.43    81.04    78.04    75.42    72.90    70.36    67.63    64.46    61.50    58.68    
 55.61    52.71    49.28    45.96    43.33    39.41    35.28    32.83    16.45    11.50    
 9.75     9.57     10.37    11.38    12.44    13.54    14.67    15.88    17.18    18.53    
 19.92    21.29    22.72    24.34    26.11    28.03    30.12    32.36    34.73    37.39    
 40.28    44.04    48.22    52.17    57.58    63.18    69.36    75.98    83.16    90.40    
 96.86    
130560.75 132657.64 134319.66 135799.71 137072.11 138110.01 138800.80 138506.51 136646.81 133631.94 
 129703.53 124950.93 119208.39 112593.47 105234.01 97273.81 89223.93 81151.52 73233.25 65589.65 
 59302.95 54102.10 49917.19 46359.22 43115.64 40243.34 37580.18 35163.21 32891.84 30732.73 
 28883.49 27049.05 25321.67 23785.41 22345.92 21014.25 19790.51 18567.62 17482.56 16359.98 
 15288.45 14272.84 13313.21 12365.96 11566.11 10767.55 9968.99  9313.15  8709.51  8126.77  
 7591.10  7116.50  6688.64  6293.73  5907.17  5543.16  5199.83  4888.43  4609.84  4338.34  
 4099.07  3838.23  3610.22  3399.79  3197.55  3003.02  2813.78  2629.80  2447.88  2273.61  
 2112.26  1960.67  1816.38  1675.36  1542.00  1417.54  1293.97  1187.45  1081.08  974.71   
 886.23   803.79   725.90   655.38   595.17   545.34   501.32   463.28   424.90   396.41   
 376.32   356.86   337.58   319.30   303.36   288.61   276.63   266.02   257.19   249.29   
 241.82   235.14   229.07   223.62   218.29   213.06   208.49   204.38   200.50   196.92   
 193.34   190.07   186.75   183.18   180.17   177.29   174.32   171.66   168.87   166.04   
 163.12   160.20   157.49   154.91   151.69   148.77   145.54   142.53   139.44   136.26   
 132.90   129.98   126.38   122.78   119.51   115.87   112.53   109.16   105.47   101.39   
 97.47    92.79    88.13    84.04    80.48    78.40    77.07    72.78    68.89    65.33    
 61.53    57.58    54.18    49.81    46.86    44.29    26.20    18.22    16.38    17.95    
 18.29    19.06    20.73    22.60    24.60    26.60    28.54    30.34    32.47    34.79    
 37.41    40.40    43.96    47.98    52.58    58.16    63.95    70.66    77.71    85.14    
 96.86    
