IESNA:LM-63-2002
[TEST] 1
[TESTLAB] AOK
[TESTDATE] 2022-05-27
[ISSUEDATE] 2022-05-27 14:16:35
[NEARFIELD] 
[LAMPPOSITION] 0,0
[OTHER] EVERFINE GO-2000A_V1 SYSTEM
[MANUFAC] AOK
[LUMCAT] A
[LUMINAIRE] AOK-600WiSF-NV-S5-00-5070-15D-P
[LAMPCAT] B
[LAMP] 5050
[BALLAST] E
[BALLASTCAT] F
[OTHER] 
[OTHER] Gamma(deg)    Fz(lm)      Ft(lm)     %Lum    %Lamp
[OTHER]   0- 10     34735.25    34735.25    45.55    45.55
[OTHER]  10- 20     20472.84    55208.09    72.40    72.40
[OTHER]  20- 30      7361.96    62570.05    82.06    82.06
[OTHER]  30- 40      3738.00    66308.05    86.96    86.96
[OTHER]  40- 50      3383.87    69691.92    91.40    91.40
[OTHER]  50- 60      3026.05    72717.98    95.37    95.37
[OTHER]  60- 70      2221.57    74939.55    98.28    98.28
[OTHER]  70- 80      1011.02    75950.56    99.61    99.61
[OTHER]  80- 90       132.98    76083.55    99.78    99.78
[OTHER]  90-100         2.44    76085.99    99.78    99.78
[OTHER] 100-110         3.98    76089.97    99.79    99.79
[OTHER] 110-120         5.99    76095.96    99.80    99.80
[OTHER] 120-130         7.77    76103.73    99.81    99.81
[OTHER] 130-140         9.62    76113.35    99.82    99.82
[OTHER] 140-150        17.40    76130.75    99.84    99.84
[OTHER] 150-160        44.61    76175.37    99.90    99.90
[OTHER] 160-170        54.69    76230.05    99.97    99.97
[OTHER] 170-180        20.14    76250.20   100.00   100.00
[OTHER] 
TILT=NONE
1 76250 1 181 25 1 2 0.150 0.200 0.000
1.000 1 567.641
0.0    1.0    2.0    3.0    4.0    5.0    6.0    7.0    8.0    9.0    
 10.0   11.0   12.0   13.0   14.0   15.0   16.0   17.0   18.0   19.0   
 20.0   21.0   22.0   23.0   24.0   25.0   26.0   27.0   28.0   29.0   
 30.0   31.0   32.0   33.0   34.0   35.0   36.0   37.0   38.0   39.0   
 40.0   41.0   42.0   43.0   44.0   45.0   46.0   47.0   48.0   49.0   
 50.0   51.0   52.0   53.0   54.0   55.0   56.0   57.0   58.0   59.0   
 60.0   61.0   62.0   63.0   64.0   65.0   66.0   67.0   68.0   69.0   
 70.0   71.0   72.0   73.0   74.0   75.0   76.0   77.0   78.0   79.0   
 80.0   81.0   82.0   83.0   84.0   85.0   86.0   87.0   88.0   89.0   
 90.0   91.0   92.0   93.0   94.0   95.0   96.0   97.0   98.0   99.0   
 100.0  101.0  102.0  103.0  104.0  105.0  106.0  107.0  108.0  109.0  
 110.0  111.0  112.0  113.0  114.0  115.0  116.0  117.0  118.0  119.0  
 120.0  121.0  122.0  123.0  124.0  125.0  126.0  127.0  128.0  129.0  
 130.0  131.0  132.0  133.0  134.0  135.0  136.0  137.0  138.0  139.0  
 140.0  141.0  142.0  143.0  144.0  145.0  146.0  147.0  148.0  149.0  
 150.0  151.0  152.0  153.0  154.0  155.0  156.0  157.0  158.0  159.0  
 160.0  161.0  162.0  163.0  164.0  165.0  166.0  167.0  168.0  169.0  
 170.0  171.0  172.0  173.0  174.0  175.0  176.0  177.0  178.0  179.0  
 180.0  
0.0    15.0   30.0   45.0   60.0   75.0   90.0   105.0  120.0  135.0  
 150.0  165.0  180.0  195.0  210.0  225.0  240.0  255.0  270.0  285.0  
 300.0  315.0  330.0  345.0  360.0  
530658.81 529464.99 524117.48 513350.46 493592.25 457943.15 400659.93 329178.29 259694.05 201643.28 
 157941.45 126765.95 109244.64 91874.27 74503.90 63671.67 54796.50 47173.69 40985.69 35706.48 
 31124.42 26968.74 23200.70 19800.17 16810.33 14326.45 12341.67 10880.98 9425.60  8355.05  
 7542.33  6860.25  6315.26  5965.07  5754.74  5610.00  5487.17  5326.54  5128.41  4916.56  
 4723.73  4558.72  4418.83  4307.23  4205.96  4100.81  3986.81  3871.11  3757.00  3633.29  
 3515.81  3409.66  3324.43  3246.26  3161.78  3058.42  2960.84  2876.93  2803.59  2730.75  
 2652.32  2557.66  2442.21  2291.33  2135.61  1973.44  1825.59  1689.51  1559.16  1436.09  
 1314.29  1187.70  1061.44  935.20   824.01   723.65   621.31   522.60   429.62   350.70   
 273.41   211.43   154.40   122.40   90.66    58.92    39.43    22.02    6.92     3.32     
 2.80     2.79     2.62     2.71     2.85     3.02     3.20     3.39     3.59     3.79     
 4.01     4.25     4.48     4.73     4.99     5.27     5.53     5.80     6.08     6.36     
 6.66     6.96     7.26     7.57     7.90     8.22     8.55     8.88     9.23     9.57     
 9.93     10.28    10.65    11.02    11.38    11.74    12.12    12.50    12.87    13.23    
 13.59    13.95    14.32    14.72    15.16    15.65    16.21    16.92    17.77    18.81    
 20.03    21.61    23.53    25.95    28.97    32.80    37.69    43.85    51.76    61.72    
 73.72    87.51    102.86   119.57   138.11   157.35   176.74   196.08   215.78   235.80   
 255.82   272.97   288.63   303.06   314.73   323.56   330.21   333.86   334.89   333.35   
 328.90   321.82   312.74   301.94   289.93   277.27   263.99   250.27   235.82   220.28   
 204.46   
530658.81 529544.35 524263.80 513790.67 494135.91 458043.23 400605.31 330413.10 267100.35 203942.75 
 160899.00 129912.72 106802.85 89547.38 76110.72 65582.81 56735.57 49451.06 43402.58 38351.81 
 33750.61 29609.01 25950.94 22297.61 19211.63 16580.64 14338.18 12459.14 10917.80 9625.23  
 8512.05  7504.86  6725.83  6248.05  5963.95  5742.18  5531.14  5307.56  5074.03  4848.94  
 4667.95  4525.58  4404.65  4300.30  4210.14  4135.15  4048.49  3959.95  3885.86  3811.22  
 3721.34  3631.02  3537.14  3447.48  3355.16  3260.44  3168.13  3075.62  2959.65  2822.84  
 2690.05  2557.25  2424.55  2302.25  2167.53  2049.16  1928.16  1806.54  1690.18  1576.27  
 1455.30  1323.28  1188.20  1043.56  911.18   783.45   670.65   564.34   464.50   378.84   
 306.64   234.45   162.51   118.31   86.19    60.05    39.77    22.42    7.95     3.46     
 3.00     3.11     2.84     2.83     2.83     2.94     3.10     3.28     3.47     3.67     
 3.90     4.14     4.38     4.62     4.88     5.14     5.41     5.67     5.94     6.21     
 6.51     6.81     7.11     7.40     7.71     8.02     8.35     8.69     9.03     9.37     
 9.69     10.05    10.41    10.78    11.13    11.49    11.86    12.23    12.60    12.97    
 13.34    13.71    14.11    14.53    15.06    15.64    16.32    17.14    18.08    19.23    
 20.59    22.19    24.14    26.53    29.50    33.27    38.02    44.08    51.70    61.39    
 72.99    86.67    101.47   119.15   136.84   155.51   175.12   194.47   214.04   233.52   
 252.08   269.68   285.61   299.71   311.28   320.30   326.56   330.15   331.00   329.15   
 324.60   317.69   308.92   298.45   287.15   274.58   260.89   246.93   231.81   216.89   
 204.46   
530658.81 528702.57 522391.69 510415.61 487654.94 447712.16 387192.50 316619.54 250349.46 198358.48 
 159382.53 130202.78 112302.60 94527.19 76751.78 66211.96 57902.03 51260.40 45938.07 41299.04 
 37003.77 32799.41 28979.25 25420.30 22255.51 19549.62 17228.21 15236.55 13459.80 11926.48 
 10567.74 9211.12  8023.13  7112.23  6431.21  5915.80  5515.19  5216.02  4996.67  4838.33  
 4720.77  4631.72  4537.41  4437.02  4346.58  4268.67  4201.72  4136.89  4057.65  3967.83  
 3866.56  3764.09  3670.42  3561.24  3435.47  3311.10  3189.15  3072.44  2967.40  2867.30  
 2768.45  2671.89  2566.29  2450.17  2318.71  2180.66  2028.53  1887.44  1739.27  1589.02  
 1445.56  1314.19  1186.91  1053.19  919.38   798.08   687.49   582.41   482.06   386.76   
 305.97   230.77   167.76   130.66   93.84    57.01    36.16    19.41    6.70     3.49     
 3.39     3.24     3.14     3.08     3.10     3.23     3.38     3.55     3.76     3.99     
 4.22     4.47     4.72     4.98     5.23     5.50     5.76     6.04     6.33     6.62     
 6.91     7.20     7.50     7.81     8.12     8.43     8.75     9.08     9.41     9.74     
 10.08    10.42    10.78    11.14    11.48    11.84    12.21    12.59    12.97    13.36    
 13.76    14.21    14.71    15.24    15.87    16.60    17.48    18.48    19.61    20.94    
 22.45    24.19    26.36    28.96    32.15    36.20    41.39    47.77    55.74    65.77    
 77.54    90.88    105.55   121.83   139.82   158.43   177.27   196.05   215.82   235.40   
 254.98   271.50   287.16   300.41   310.99   319.05   324.14   326.36   325.60   322.15   
 316.33   308.54   299.27   289.92   278.78   266.54   253.21   239.52   225.18   211.00   
 204.46   
530658.81 528584.97 522418.34 510605.43 487889.69 447370.51 388548.24 321256.76 262301.00 203493.72 
 163922.55 134974.55 111836.45 92976.43 78136.92 66870.29 58301.11 51561.83 46184.30 41656.82 
 37534.52 33556.41 29766.35 26672.16 23577.99 20489.82 18078.21 15984.88 14190.01 12554.89 
 11049.09 9612.23  8316.88  7280.76  6495.41  5910.14  5517.64  5261.82  5069.65  4901.80  
 4760.68  4643.65  4542.50  4456.74  4384.22  4309.57  4220.50  4137.05  4052.34  3960.75  
 3864.27  3759.39  3657.44  3567.84  3488.03  3406.91  3311.55  3194.84  3071.23  2940.42  
 2811.66  2687.99  2564.31  2440.60  2312.98  2194.11  2076.14  1952.44  1820.46  1686.19  
 1541.59  1398.21  1270.15  1143.23  1014.52  884.06   761.51   643.09   533.65   436.65   
 348.63   279.40   210.17   141.15   95.48    63.16    40.95    23.50    9.63     3.46     
 3.22     3.10     2.97     2.93     2.98     3.08     3.24     3.46     3.68     3.91     
 4.14     4.39     4.63     4.90     5.17     5.44     5.69     5.97     6.26     6.55     
 6.84     7.13     7.44     7.76     8.08     8.40     8.74     9.07     9.40     9.73     
 10.09    10.45    10.82    11.17    11.53    11.89    12.28    12.67    13.08    13.52    
 13.99    14.50    15.05    15.66    16.33    17.10    18.01    19.09    20.24    21.61    
 23.28    25.13    27.38    30.11    33.50    37.78    43.04    49.65    57.61    67.31    
 78.60    91.57    105.67   122.50   139.34   157.36   176.29   195.13   214.53   233.54   
 251.58   268.49   283.51   296.44   306.70   314.07   318.37   319.61   318.15   314.25   
 308.58   301.98   293.77   284.12   273.56   261.86   249.21   236.24   222.34   209.16   
 204.46   
530658.81 527461.52 520264.56 506573.06 480896.77 438343.89 379627.05 312805.78 250944.70 200450.40 
 161715.08 132211.45 113283.79 94473.10 75662.42 63897.84 54917.65 47673.37 41769.37 36730.80 
 32385.90 28345.48 24656.27 21374.23 18496.02 16001.83 13915.18 12126.43 10716.01 9310.39  
 8267.82  7388.65  6695.22  6214.26  5891.58  5652.42  5470.69  5320.85  5195.33  5077.33  
 4961.02  4844.72  4739.24  4636.29  4531.77  4424.83  4324.67  4214.57  4107.16  4000.98  
 3908.71  3820.73  3732.81  3641.28  3546.50  3448.48  3349.62  3250.75  3139.06  3021.21  
 2894.07  2758.79  2625.05  2499.74  2383.34  2264.25  2141.52  2013.94  1887.50  1750.66  
 1604.89  1456.21  1316.70  1183.72  1057.80  931.96   796.10   676.34   569.01   469.07   
 376.12   286.56   214.70   154.72   117.08   79.73    42.37    23.72    10.54    3.64     
 3.15     3.05     2.99     3.01     3.16     3.36     3.57     3.80     4.04     4.28     
 4.53     4.78     5.04     5.31     5.58     5.85     6.13     6.42     6.71     7.00     
 7.30     7.61     7.93     8.25     8.57     8.90     9.23     9.56     9.92     10.27    
 10.61    10.97    11.33    11.68    12.04    12.41    12.79    13.18    13.58    13.99    
 14.44    14.94    15.46    16.08    16.79    17.61    18.55    19.64    20.95    22.48    
 24.23    26.29    28.74    31.85    35.75    40.62    46.52    53.52    61.86    71.68    
 83.55    96.99    111.69   127.42   143.85   161.08   180.03   199.23   217.65   235.74   
 253.82   269.42   282.76   293.61   302.62   308.67   311.93   312.88   312.41   309.26   
 303.92   297.08   289.03   280.03   270.01   259.16   247.48   235.31   222.62   209.80   
 204.46   
530658.81 527667.55 520743.20 508167.30 483957.16 443924.86 389319.46 326485.99 268171.47 209987.24 
 168687.50 136225.39 111113.86 91353.44 75719.71 63696.21 53810.56 45670.94 38873.88 33422.55 
 28783.39 24966.28 21154.50 17996.34 15264.57 12946.89 11014.16 9527.78  8445.06  7665.49  
 7083.77  6637.88  6291.06  6022.58  5802.62  5622.74  5479.67  5367.18  5263.46  5154.54  
 5045.78  4954.14  4866.97  4765.29  4657.53  4544.21  4437.70  4330.34  4217.39  4106.92  
 4004.56  3911.90  3826.44  3738.39  3648.45  3553.29  3457.28  3356.42  3251.86  3137.62  
 3018.17  2899.56  2784.17  2670.05  2555.93  2441.77  2321.49  2201.98  2075.30  1939.48  
 1796.98  1656.24  1514.16  1368.22  1220.09  1072.22  930.77   802.83   682.81   568.39   
 461.59   361.98   287.68   213.38   139.34   92.17    55.87    32.00    16.88    5.36     
 3.38     2.75     2.71     2.90     3.10     3.32     3.54     3.77     4.01     4.25     
 4.50     4.75     5.02     5.30     5.57     5.86     6.14     6.43     6.73     7.03     
 7.34     7.65     7.97     8.31     8.63     8.96     9.31     9.66     10.00    10.35    
 10.72    11.09    11.46    11.82    12.17    12.53    12.89    13.26    13.63    14.00    
 14.40    14.85    15.37    15.91    16.52    17.22    18.08    19.12    20.30    21.75    
 23.54    25.70    28.31    31.50    35.43    40.35    46.28    53.45    61.92    71.95    
 83.43    96.30    110.07   126.60   143.13   160.58   178.76   196.63   214.59   231.71   
 247.70   262.42   275.31   286.62   295.80   302.96   307.96   310.91   311.76   309.87   
 306.50   301.25   294.35   286.10   276.55   266.63   254.63   241.80   228.16   214.76   
 204.46   
530658.81 527792.78 521095.17 509326.14 487360.20 450661.42 401083.43 342479.58 287353.36 232227.13 
 177314.13 142235.02 115162.30 94182.42 77941.24 65202.64 54750.37 46032.85 38890.46 33113.11 
 28477.46 24701.78 20932.55 17755.46 14949.54 12595.38 10736.85 9313.45  8292.44  7568.84  
 7052.63  6650.35  6335.94  6075.47  5863.87  5676.53  5520.45  5382.10  5261.45  5156.47  
 5063.59  4982.96  4873.39  4762.42  4670.20  4579.46  4479.06  4368.76  4264.03  4159.38  
 4060.34  3965.44  3882.94  3806.22  3728.86  3649.83  3562.32  3465.15  3359.52  3245.15  
 3132.80  3022.81  2910.12  2804.05  2687.42  2570.78  2454.01  2324.12  2196.75  2065.53  
 1926.71  1783.29  1631.40  1481.60  1334.00  1190.69  1048.15  905.92   772.83   647.58   
 532.62   422.22   323.59   245.78   168.21   110.48   66.24    36.85    17.43    5.50     
 0.97     0.87     0.88     0.94     0.99     1.06     1.13     1.21     1.30     1.39     
 1.49     1.60     1.73     1.86     1.99     2.14     2.29     2.46     2.63     2.80     
 2.98     3.15     3.34     3.53     3.72     3.91     4.10     4.29     4.47     4.67     
 4.86     5.04     5.23     5.40     5.58     5.76     5.93     6.11     6.28     6.47     
 6.66     6.86     7.07     7.30     7.55     7.82     8.14     8.51     8.92     9.42     
 10.01    10.69    11.48    12.43    13.59    14.93    16.45    18.23    20.22    22.43    
 24.98    27.69    30.71    34.00    37.51    41.26    45.25    49.41    53.88    58.32    
 62.89    67.54    72.20    76.94    81.65    86.44    91.19    96.20    101.83   106.73   
 111.57   116.66   122.16   128.17   135.00   143.04   152.34   162.88   174.81   187.75   
 204.46   
530658.81 527265.12 520209.74 507951.55 486527.97 451420.58 403781.69 346322.33 286246.06 228867.68 
 181061.32 143915.21 115938.56 97689.02 79517.88 66627.45 56430.48 48135.36 41434.53 35706.37 
 30893.66 26637.20 22846.95 19356.50 16322.20 13769.06 11681.49 10253.13 8829.64  7920.29  
 7275.95  6794.28  6413.19  6127.31  5901.42  5722.03  5579.02  5460.29  5346.87  5228.38  
 5117.03  5019.33  4927.35  4825.04  4721.43  4614.61  4504.97  4394.10  4280.83  4173.54  
 4069.37  3969.34  3877.34  3787.81  3686.72  3582.72  3485.89  3388.73  3282.36  3161.12  
 3037.36  2916.71  2802.15  2687.64  2569.15  2447.41  2329.65  2213.52  2086.60  1947.60  
 1802.50  1656.16  1501.82  1352.59  1203.01  1065.05  927.21   797.34   672.50   558.42   
 452.65   359.83   273.57   196.32   136.02   88.63    58.62    28.78    14.36    3.41     
 1.14     1.09     1.08     1.12     1.15     1.17     1.22     1.29     1.37     1.45     
 1.55     1.66     1.77     1.90     2.03     2.18     2.33     2.48     2.65     2.81     
 2.98     3.16     3.34     3.52     3.71     3.89     4.08     4.25     4.43     4.62     
 4.79     4.98     5.16     5.34     5.51     5.68     5.86     6.04     6.23     6.42     
 6.61     6.83     7.05     7.31     7.57     7.89     8.25     8.66     9.13     9.66     
 10.27    11.01    11.89    12.92    14.10    15.51    17.12    18.92    21.01    23.34    
 25.90    28.65    31.68    35.02    38.51    42.17    46.17    50.28    54.50    58.81    
 63.17    67.63    72.10    76.63    81.15    85.77    90.35    95.03    99.75    104.58   
 110.53   115.76   121.37   127.49   134.39   142.46   151.70   162.47   174.36   187.55   
 204.46   
530658.81 527439.60 521137.46 510265.01 492166.48 462006.56 420104.35 366879.00 307520.74 251460.89 
 195565.62 155017.65 123547.59 100586.13 83490.35 70614.84 60512.08 52479.05 45929.81 40516.34 
 35652.51 31295.80 27606.02 23916.23 20235.99 17392.50 14963.96 12905.64 11146.94 9711.90  
 8548.68  7609.24  6844.50  6296.20  5946.70  5718.55  5535.34  5375.89  5237.40  5118.07  
 5002.40  4891.80  4780.88  4668.37  4555.55  4451.98  4354.41  4258.72  4153.46  4047.43  
 3943.80  3841.37  3739.42  3642.87  3543.65  3443.24  3342.81  3241.16  3137.47  3029.29  
 2911.77  2780.30  2648.97  2517.81  2399.85  2284.78  2160.43  2035.88  1904.51  1773.59  
 1634.47  1490.66  1349.52  1219.55  1091.69  967.27   836.47   708.34   600.15   500.29   
 404.50   326.46   248.43   170.71   118.62   77.41    46.75    26.06    14.35    3.47     
 1.66     1.53     1.40     1.17     0.98     1.00     1.05     1.10     1.17     1.25     
 1.34     1.44     1.53     1.64     1.76     1.89     2.03     2.18     2.33     2.48     
 2.64     2.81     2.98     3.15     3.34     3.51     3.69     3.86     4.04     4.23     
 4.41     4.59     4.77     4.94     5.12     5.30     5.47     5.65     5.83     6.02     
 6.24     6.46     6.69     6.95     7.24     7.55     7.90     8.32     8.79     9.35     
 9.94     10.63    11.43    12.36    13.46    14.74    16.22    17.91    19.86    22.07    
 24.49    27.19    30.13    33.39    36.91    40.67    44.68    48.86    53.28    57.80    
 62.47    67.20    71.97    76.79    81.55    86.39    91.11    95.89    100.59   105.46   
 110.41   115.71   121.47   127.80   135.44   143.28   152.34   162.58   174.31   187.35   
 204.46   
530658.81 526983.85 520193.02 509659.64 492846.93 465970.53 425607.04 373188.73 312797.64 251859.03 
 196289.09 153886.64 121755.72 101197.02 80731.61 67872.81 58359.65 51116.51 45232.90 40131.61 
 35499.33 31313.42 27407.86 23654.77 20298.00 17450.25 15080.81 13103.88 11674.09 10249.74 
 8825.39  7822.59  6945.74  6308.94  5892.82  5611.12  5410.21  5246.41  5096.92  4947.92  
 4810.93  4686.06  4574.49  4480.26  4403.80  4323.08  4231.92  4129.85  4043.33  3953.72  
 3857.13  3754.23  3647.67  3547.88  3461.36  3376.15  3284.95  3176.49  3055.46  2923.92  
 2797.10  2675.86  2553.93  2428.39  2298.02  2179.21  2062.91  1943.82  1813.50  1677.08  
 1538.21  1396.11  1268.36  1142.05  1015.76  889.47   772.62   653.02   536.84   437.80   
 349.64   274.33   204.69   144.32   104.50   64.88    41.57    25.15    11.25    2.25     
 1.56     1.50     1.45     1.40     1.33     1.25     1.21     1.21     1.27     1.34     
 1.42     1.51     1.60     1.70     1.81     1.94     2.07     2.20     2.34     2.49     
 2.65     2.80     2.97     3.14     3.31     3.48     3.66     3.83     4.01     4.18     
 4.36     4.54     4.71     4.89     5.06     5.23     5.40     5.58     5.77     5.96     
 6.17     6.39     6.63     6.88     7.18     7.50     7.86     8.27     8.72     9.23     
 9.78     10.41    11.17    12.05    13.08    14.25    15.61    17.22    19.06    21.20    
 23.61    26.04    29.16    32.50    36.01    39.38    43.49    47.78    52.27    56.97    
 61.86    66.97    72.12    77.39    82.52    87.66    92.68    97.59    102.28   106.82   
