IESNA:LM-63-2002
[TEST] 1
[TESTLAB] AOK
[TESTDATE] 2022-05-31
[ISSUEDATE] 2022-05-31 14:42:52
[NEARFIELD] 
[LAMPPOSITION] 0,0
[OTHER] EVERFINE GO-2000A_V1 SYSTEM
[MANUFAC] AOK
[LUMCAT] A
[LUMINAIRE] AOK-1200WiSF-NV-S5-00-5070-30D-P
[LAMPCAT] B
[LAMP] 5050
[BALLAST] E
[BALLASTCAT] F
[OTHER] 
[OTHER] Gamma(deg)    Fz(lm)      Ft(lm)     %Lum    %Lamp
[OTHER]   0- 10     31876.29    31876.29    19.21    19.21
[OTHER]  10- 20     51918.54    83794.83    50.49    50.49
[OTHER]  20- 30     32027.82   115822.65    69.79    69.79
[OTHER]  30- 40     21007.97   136830.61    82.45    82.45
[OTHER]  40- 50     13125.80   149956.42    90.35    90.35
[OTHER]  50- 60      7389.22   157345.63    94.81    94.81
[OTHER]  60- 70      4142.33   161487.96    97.30    97.30
[OTHER]  70- 80      2096.15   163584.11    98.57    98.57
[OTHER]  80- 90       906.53   164490.64    99.11    99.11
[OTHER]  90-100       446.66   164937.30    99.38    99.38
[OTHER] 100-110       282.88   165220.19    99.55    99.55
[OTHER] 110-120       206.17   165426.36    99.68    99.68
[OTHER] 120-130       151.45   165577.81    99.77    99.77
[OTHER] 130-140       110.12   165687.93    99.83    99.83
[OTHER] 140-150        88.23   165776.16    99.89    99.89
[OTHER] 150-160        84.53   165860.69    99.94    99.94
[OTHER] 160-170        74.49   165935.18    99.98    99.98
[OTHER] 170-180        28.46   165963.63   100.00   100.00
[OTHER] 
TILT=NONE
1 1.6596e+005 1 181 25 1 2 0.150 0.200 0.000
1.000 1 1184.09
0.0    1.0    2.0    3.0    4.0    5.0    6.0    7.0    8.0    9.0    
 10.0   11.0   12.0   13.0   14.0   15.0   16.0   17.0   18.0   19.0   
 20.0   21.0   22.0   23.0   24.0   25.0   26.0   27.0   28.0   29.0   
 30.0   31.0   32.0   33.0   34.0   35.0   36.0   37.0   38.0   39.0   
 40.0   41.0   42.0   43.0   44.0   45.0   46.0   47.0   48.0   49.0   
 50.0   51.0   52.0   53.0   54.0   55.0   56.0   57.0   58.0   59.0   
 60.0   61.0   62.0   63.0   64.0   65.0   66.0   67.0   68.0   69.0   
 70.0   71.0   72.0   73.0   74.0   75.0   76.0   77.0   78.0   79.0   
 80.0   81.0   82.0   83.0   84.0   85.0   86.0   87.0   88.0   89.0   
 90.0   91.0   92.0   93.0   94.0   95.0   96.0   97.0   98.0   99.0   
 100.0  101.0  102.0  103.0  104.0  105.0  106.0  107.0  108.0  109.0  
 110.0  111.0  112.0  113.0  114.0  115.0  116.0  117.0  118.0  119.0  
 120.0  121.0  122.0  123.0  124.0  125.0  126.0  127.0  128.0  129.0  
 130.0  131.0  132.0  133.0  134.0  135.0  136.0  137.0  138.0  139.0  
 140.0  141.0  142.0  143.0  144.0  145.0  146.0  147.0  148.0  149.0  
 150.0  151.0  152.0  153.0  154.0  155.0  156.0  157.0  158.0  159.0  
 160.0  161.0  162.0  163.0  164.0  165.0  166.0  167.0  168.0  169.0  
 170.0  171.0  172.0  173.0  174.0  175.0  176.0  177.0  178.0  179.0  
 180.0  
0.0    15.0   30.0   45.0   60.0   75.0   90.0   105.0  120.0  135.0  
 150.0  165.0  180.0  195.0  210.0  225.0  240.0  255.0  270.0  285.0  
 300.0  315.0  330.0  345.0  360.0  
370210.56 367688.37 368096.77 367626.16 343775.80 319748.62 295143.18 260489.82 237336.39 206572.74 
 176389.23 146055.29 129453.30 119536.85 108679.44 97811.21 87042.25 66677.15 50649.14 38066.55 
 27034.98 16709.28 13321.25 10012.79 6704.33  3395.88  87.42    38.71    33.00    29.27    
 25.81    24.03    22.17    19.88    17.55    15.87    14.22    12.84    11.94    11.24    
 11.03    10.77    10.83    10.35    9.91     9.64     10.02    10.44    10.91    11.52    
 12.09    12.45    12.79    13.30    13.81    13.93    13.85    13.54    13.24    12.86    
 12.39    11.88    11.33    10.82    10.33    9.95     9.67     9.40     9.21     9.03     
 8.87     8.71     8.62     8.45     8.35     8.20     8.10     7.98     7.85     7.78     
 7.75     7.73     7.74     7.78     7.94     8.10     8.26     8.45     8.67     8.92     
 9.14     9.40     9.67     9.97     10.31    10.66    11.02    11.40    11.82    12.28    
 12.75    13.25    13.76    14.35    14.99    15.67    16.37    17.13    17.96    18.88    
 19.85    20.93    22.09    23.37    24.75    26.24    27.86    29.61    31.49    33.48    
 35.62    37.93    40.41    43.12    46.00    48.96    52.31    55.89    59.69    63.71    
 68.01    72.69    77.65    82.89    88.52    94.41    100.83   107.88   115.49   123.71   
 132.47   141.79   151.93   163.05   174.80   187.05   199.80   213.01   227.04   242.41   
 257.78   272.59   287.17   301.45   315.76   329.35   342.32   354.81   366.56   377.56   
 387.65   396.79   405.28   412.72   418.67   422.62   424.74   424.72   422.69   418.31   
 412.00   404.94   397.00   387.79   377.72   366.51   354.22   338.89   322.92   304.70   
 284.52   
370210.56 367187.02 365714.84 364895.77 357260.07 327784.00 303788.98 277675.02 249398.76 221122.49 
 192862.28 166551.32 133298.90 119256.05 107919.17 96871.97 86345.49 76413.23 58101.49 45308.20 
 34703.88 25196.31 15718.96 9879.47  5363.03  883.73   564.88   394.93   290.90   187.53   
 151.68   109.50   111.02   91.26    51.15    36.48    29.86    26.11    23.89    22.14    
 20.76    19.63    18.42    17.09    15.98    15.09    14.39    13.82    13.46    13.22    
 13.09    12.84    12.34    11.60    10.86    10.16    9.62     9.18     8.72     8.33     
 7.95     7.61     7.30     7.09     6.84     6.68     6.50     6.28     6.11     5.96     
 5.83     5.68     5.65     5.55     5.49     5.48     5.46     5.46     5.46     5.46     
 5.46     5.51     5.66     5.79     5.91     6.15     6.40     6.54     6.74     7.06     
 7.33     7.59     7.84     8.10     8.37     8.72     9.12     9.56     9.99     10.48    
 10.99    11.55    12.15    12.78    13.47    14.19    14.94    15.76    16.68    17.66    
 18.68    19.79    21.00    22.30    23.75    25.28    26.89    28.56    30.36    32.33    
 34.47    36.84    39.38    42.00    44.77    47.78    51.08    54.58    58.27    62.23    
 66.41    70.88    75.63    80.74    86.13    91.93    98.26    105.20   112.46   121.23   
 130.01   139.34   149.55   160.33   171.97   184.53   197.47   211.07   225.07   239.80   
 254.79   269.74   284.25   299.06   313.53   327.60   340.98   353.52   365.72   377.21   
 387.58   397.47   406.74   414.78   421.00   425.41   427.41   427.91   425.37   421.56   
 416.11   409.57   402.85   395.29   385.91   375.26   363.13   349.30   333.38   315.84   
 284.52   
370210.56 367016.08 364252.31 362482.46 359456.63 337397.87 313309.64 284656.07 257842.40 231921.12 
 205259.24 179221.15 150184.90 124437.62 107753.02 91164.74 80513.11 70666.45 61650.11 53630.85 
 41359.50 33965.74 26689.06 18871.74 14498.61 10196.74 5895.22  1580.40  1153.34  776.03   
 398.71   287.14   217.31   166.24   140.97   119.26   97.58    75.91    64.93    54.97    
 48.59    43.64    38.87    36.20    33.46    31.53    29.51    27.34    25.55    24.27    
 23.69    23.23    22.42    21.03    19.59    18.58    17.69    16.68    15.52    14.55    
 13.51    12.58    11.74    11.18    10.61    10.06    9.61     9.16     8.71     8.20     
 7.73     7.33     7.00     6.72     6.43     6.18     5.96     5.74     5.56     5.43     
 5.33     5.32     5.35     5.46     5.61     5.78     5.98     6.19     6.42     6.66     
 6.94     7.24     7.56     7.91     8.29     8.69     9.13     9.58     10.07    10.57    
 11.12    11.71    12.33    13.01    13.71    14.46    15.26    16.13    17.05    18.04    
 19.08    20.25    21.51    22.84    24.28    25.81    27.48    29.24    31.14    33.17    
 35.32    37.64    40.11    42.80    45.63    48.58    51.77    55.26    58.94    62.89    
 66.98    71.30    75.89    80.80    86.23    92.16    98.50    105.32   112.71   120.59   
 129.11   138.25   148.44   159.41   170.92   183.17   196.12   209.70   223.66   239.16   
 254.68   269.39   284.09   298.74   313.74   328.31   342.14   355.36   368.32   380.49   
 392.05   402.14   411.24   419.19   425.24   429.57   432.00   432.54   431.04   428.91   
 424.92   420.21   414.43   406.57   397.17   385.73   373.10   358.56   342.61   325.49   
 284.52   
370210.56 367403.97 363377.59 360241.52 354827.32 346982.92 329078.18 302085.72 280020.03 253025.15 
 226030.26 199093.66 179147.56 150236.78 128538.58 106347.06 86872.85 70418.94 61234.23 53225.81 
 47412.93 42469.29 38253.28 34385.18 29051.79 23718.39 18400.73 14798.29 11331.84 8299.25  
 6302.87  4506.74  2710.61  926.55   628.34   439.43   324.70   260.51   196.61   162.49   
 135.58   115.36   98.63    83.90    73.81    63.99    56.88    51.17    45.77    41.73    
 38.62    36.13    34.14    31.92    29.95    28.74    28.34    28.15    27.65    26.18    
 24.15    22.27    20.36    18.76    17.17    15.76    14.55    13.60    12.65    11.75    
 10.98    10.20    9.48     8.90     8.36     7.82     7.27     6.77     6.30     5.88     
 5.52     5.30     5.28     5.35     5.48     5.65     5.85     6.07     6.30     6.55     
 6.84     7.15     7.47     7.82     8.21     8.62     9.07     9.56     10.07    10.60    
 11.15    11.74    12.38    13.07    13.81    14.56    15.39    16.25    17.25    18.24    
 19.27    20.38    21.60    22.90    24.31    25.83    27.46    29.19    30.95    32.94    
 35.01    37.31    39.77    42.27    44.90    47.77    50.81    54.10    57.57    61.19    
 65.11    69.25    73.81    78.59    83.69    89.18    95.32    101.84   108.72   116.30   
 125.51   134.72   144.53   155.31   166.64   178.93   191.79   205.13   219.20   233.67   
 248.57   263.68   278.42   294.01   309.30   324.50   339.31   353.20   366.57   379.02   
 390.64   401.13   410.53   418.61   424.74   429.51   432.81   435.19   435.35   434.12   
 431.49   426.95   420.88   413.68   404.60   393.73   381.21   367.04   351.18   335.14   
 284.52   
370210.56 367578.60 363951.32 357702.41 350080.52 341557.58 331976.09 320446.41 305456.38 278572.38 
 251191.43 229616.78 203799.00 179712.65 155408.40 131576.42 114995.71 98488.71 81981.70 70656.89 
 59383.61 51624.36 44644.90 37970.20 34278.21 31132.75 28253.74 25700.74 23061.30 20748.18 
 18593.07 16518.80 14267.81 11682.99 9565.29  7452.91  5706.34  4655.02  3545.06  2665.31  
 1904.51  1286.39  960.49   638.12   454.64   346.07   277.83   225.73   187.18   152.74   
 130.65   115.28   100.00   86.43    74.32    65.69    58.23    52.16    47.97    44.34    
 40.77    38.75    36.55    34.53    32.57    30.51    27.94    24.68    22.04    20.11    
 18.42    16.83    15.24    13.78    12.56    11.51    10.62    9.73     8.75     7.79     
 6.92     6.27     5.86     5.82     5.95     6.12     6.32     6.55     6.79     7.06     
 7.35     7.66     8.00     8.36     8.75     9.16     9.60     10.08    10.58    11.08    
 11.65    12.26    12.92    13.59    14.32    15.10    15.94    16.81    17.71    18.69    
 19.74    20.86    22.04    23.34    24.78    26.24    27.78    29.41    31.23    33.14    
 35.13    37.24    39.53    41.95    44.53    47.24    50.13    53.26    56.62    60.14    
 63.89    67.83    71.99    76.52    81.49    87.06    93.07    99.56    106.69   114.41   
 122.88   131.97   142.16   153.20   164.98   177.48   190.77   204.58   218.91   234.31   
 249.73   265.14   280.02   294.89   310.27   325.15   339.24   352.80   365.67   378.23   
 389.71   400.27   409.68   418.28   425.40   431.00   435.25   437.75   438.73   438.05   
 435.93   431.64   425.98   418.87   410.38   400.29   389.22   376.51   362.57   348.58   
 284.52   
370210.56 368244.75 365308.74 360123.70 351484.45 341804.70 330931.48 319404.55 305801.24 289926.99 
 272326.54 252040.55 231754.55 211456.12 189749.80 169764.89 150658.16 130740.94 112911.51 98688.11 
 87397.03 78570.02 70230.52 62913.28 57084.95 52216.37 47564.58 42825.54 38490.29 35017.89 
 32033.76 29300.82 26795.87 24290.93 21790.29 19804.19 17801.37 16131.87 14591.31 13114.05 
 11675.74 10489.17 9418.45  8422.57  7493.45  6577.84  5743.58  4940.25  4232.63  3551.37  
 2987.08  2422.80  1860.10  1456.42  1123.24  895.55   714.80   585.38   481.32   390.93   
 317.53   261.17   205.01   169.80   143.07   120.00   101.19   83.97    71.18    60.70    
 51.84    45.21    39.91    36.33    32.31    27.65    22.54    19.36    16.73    14.26    
 12.22    10.09    7.31     5.43     5.27     5.39     5.55     5.72     5.93     6.14     
 6.39     6.66     6.96     7.29     7.65     8.04     8.45     8.89     9.34     9.83     
 10.32    10.84    11.40    12.00    12.64    13.32    14.04    14.84    15.70    16.62    
 17.62    18.68    19.84    21.06    22.32    23.76    25.26    26.81    28.41    30.15    
 32.08    34.17    36.38    38.68    41.23    43.93    46.73    49.88    53.16    56.62    
 60.17    64.06    68.16    72.56    77.20    82.29    87.90    93.99    100.43   107.61   
 115.41   124.33   133.27   143.62   154.83   167.03   179.76   193.36   207.40   221.95   
 237.07   252.15   267.19   282.78   297.95   313.02   327.96   342.17   356.32   369.78   
 382.28   394.25   405.10   415.41   424.24   431.61   437.19   442.09   444.78   446.38   
 446.09   442.59   437.70   431.72   424.43   415.97   406.68   395.89   383.81   370.78   
 284.52   
370210.56 368501.16 366264.28 362420.92 355188.93 346191.01 336822.18 325940.40 312995.02 297565.40 
 280436.80 262069.71 241577.03 221074.48 199728.99 179500.37 160404.73 142488.35 126637.41 113025.03 
 101424.51 91652.53 83617.76 76847.31 71080.78 65808.38 60955.02 56462.01 52328.92 48521.06 
 45077.02 41896.35 38941.15 36189.19 33755.93 31456.94 29261.15 27190.16 25413.01 23635.86 
 21861.50 20307.95 18813.55 17415.32 16020.80 14715.56 13583.39 12453.88 11450.71 10497.59 
 9617.17  8845.33  8164.51  7535.42  6954.95  6438.12  5967.19  5519.08  5087.48  4677.88  
 4316.35  3961.50  3634.15  3318.98  3025.57  2767.93  2510.30  2252.98  2023.96  1813.51  
 1616.43  1434.80  1269.79  1115.81  970.19   834.72   708.48   596.91   497.58   414.98   
 342.07   286.22   230.38   174.61   124.99   77.02    31.47    9.15     5.57     3.88     
 3.67     3.77     3.71     3.55     2.24     2.23     2.37     2.57     2.59     2.57     
 2.66     2.74     2.86     3.05     3.02     3.11     3.32     3.35     3.42     3.59     
 3.74     3.79     3.99     4.21     4.53     4.83     5.00     5.20     5.41     5.64     
 5.91     6.21     6.53     6.90     7.35     7.85     8.41     8.99     9.61     10.31    
 11.09    11.93    12.86    13.89    14.97    16.14    17.47    18.91    20.43    22.10    
 23.95    25.90    28.19    30.70    33.38    36.40    39.60    43.03    46.71    50.60    
 54.69    58.88    63.43    68.21    73.16    78.42    84.10    90.06    96.38    103.01   
 109.78   116.81   124.72   132.63   140.41   148.61   157.25   166.51   176.25   187.77   
 198.24   209.43   220.76   233.18   246.62   260.72   275.32   289.84   304.23   318.66   
 284.52   
370210.56 369419.24 368032.97 365025.06 359322.15 351765.15 343505.15 333427.48 321875.53 307710.51 
 291552.02 273524.04 254731.24 234473.49 214006.71 193696.14 174819.10 157239.35 141522.42 127398.34 
 117195.57 107028.65 96861.73 89550.02 83274.77 77764.33 72724.95 68076.30 63673.50 59556.31 
 55795.95 52424.59 49395.29 46428.10 43764.65 41218.00 38806.25 36565.04 34405.91 32383.08 
 30479.60 28549.73 26788.80 25025.50 23419.65 21854.56 20337.07 18993.32 17654.90 16442.65 
 15305.43 14256.10 13309.91 12502.41 11688.34 11023.15 10359.29 9755.28  9218.07  8682.59  
 8165.89  7691.01  7235.47  6817.20  6412.85  6021.80  5640.84  5285.52  4940.80  4620.53  
 4320.02  4045.25  3776.20  3509.65  3255.88  3026.56  2811.04  2602.03  2407.84  2227.76  
 2054.98  1896.64  1744.41  1607.78  1478.47  1357.60  1244.00  1156.11  1068.47  980.82   
 906.33   832.68   763.80   701.98   643.44   589.07   539.74   492.21   447.37   410.32   
 374.38   342.79   314.28   288.56   264.96   241.72   219.63   198.76   178.09   159.17   
 141.82   127.62   113.49   99.37    85.29    71.82    60.01    50.80    42.82    35.15    
 17.70    6.58     5.14     5.16     5.44     5.85     6.29     6.76     7.24     7.95     
 9.01     9.99     10.98    12.15    13.37    15.39    17.06    17.79    17.88    18.59    
 19.88    21.36    23.68    26.36    27.90    29.80    30.95    33.46    37.39    41.02    
 44.44    48.02    51.30    53.50    57.68    62.20    67.04    72.17    77.50    83.06    
 88.91    95.14    101.54   108.46   115.67   123.45   131.57   141.07   150.23   160.02   
 170.46   180.97   193.11   205.28   218.82   234.57   250.33   266.37   282.24   298.06   
 284.52   
370210.56 370326.03 370079.28 369141.24 366324.06 361089.79 354510.41 347317.02 338238.52 326983.56 
 313540.01 298138.67 280275.69 260706.81 240068.24 219432.41 199039.21 179995.14 162585.99 147019.72 
 133086.82 121563.80 112201.89 104216.99 97217.75 91057.59 85324.70 80452.01 75811.55 71197.65 
 67126.14 63139.20 59637.29 56557.83 53578.11 50716.92 47897.75 45308.92 42901.20 40509.60 
 38152.50 36036.91 33917.19 31955.04 29993.74 28112.20 26322.95 24688.72 23055.54 21511.68 
 20056.37 18701.90 17412.78 16217.65 15093.23 14091.58 13182.47 12376.70 11604.53 10910.97 
 10287.98 9696.72  9124.63  8588.42  8085.15  7630.51  7183.58  6748.83  6331.82  5931.18  
 5531.87  5144.46  4785.34  4457.01  4136.51  3836.87  3550.60  3283.35  3039.89  2818.41  
 2596.93  2375.87  2191.51  2025.52  1880.23  1743.14  1616.60  1503.16  1405.57  1321.69  
 1245.53  1164.97  1090.22  1019.73  954.11   893.99   840.56   787.18   744.61   704.25   
 667.60   635.93   607.51   582.11   558.16   536.37   516.31   497.19   480.98   467.06   
 452.15   436.26   421.36   406.74   393.28   380.20   367.34   354.18   341.05   326.67   
 312.37   297.86   283.69   268.69   251.67   234.66   217.66   201.50   185.83   167.90   
 147.54   115.05   90.21    62.29    39.62    36.18    30.38    23.15    12.42    11.07    
 12.11    13.32    14.63    16.18    17.93    19.89    22.01    24.39    27.45    30.86    
 34.34    38.03    41.78    47.79    65.68    56.22    54.17    58.53    63.17    68.12    
 73.39    78.96    84.77    90.90    97.38    104.39   111.83   119.92   128.74   138.13   
 148.43   159.48   171.25   183.43   197.04   211.52   227.25   243.11   259.58   276.10   
 284.52   
370210.56 371122.29 371921.23 372521.26 372525.76 371261.77 367811.97 362562.45 355082.15 345683.28 
 333261.41 318755.91 301739.91 282684.62 261435.60 239337.88 218123.39 198280.06 180149.48 163260.66 
 148162.51 136007.07 126013.80 118294.27 111245.65 104202.37 98336.54 92996.91 87982.15 83116.70 
 78418.53 74223.66 70203.33 66283.32 62775.33 59342.01 55984.43 52773.83 49833.56 46828.10 
 44027.27 41279.80 38576.26 35932.40 33565.73 31327.99 29138.78 27048.84 25197.06 23533.11 
 21977.71 20505.73 19149.07 17919.92 16703.80 15618.21 14616.78 13746.54 12928.80 12147.09 
 11402.59 10658.38 9994.33  9367.91  8785.88  8212.68  7678.82  7162.14  6664.04  6181.33  
 5746.46  5348.07  4956.24  4585.00  4240.79  3922.06  3614.38  3319.62  3049.42  2800.27  
 2574.95  2364.26  2164.51  1974.99  1815.05  1679.01  1556.02  1438.36  1337.56  1258.56  
 1206.60  1127.47  1048.11  988.56   937.45   890.47   850.02   814.12   782.49   753.53   
 728.52   705.78   684.97   666.24   647.01   628.94   612.10   596.64   582.65   568.94   
 554.29   541.05   528.85   516.76   503.84   491.30   479.42   468.39   457.51   448.10   
 438.87   429.39   419.81   409.55   398.93   388.01   377.61   366.82   355.71   344.49   
 332.49   319.10   302.63   288.34   274.46   260.14   245.22   230.08   213.60   195.55   
 176.85   153.96   120.77   74.94    28.99    24.75    23.33    21.79    21.82    24.37    
 27.28    30.36    33.69    37.33    41.12    45.18    49.92    54.54    59.33    64.21    
 75.62    92.84    78.11    83.97    90.50    97.56    104.90   112.61   120.61   129.07   
