IESNA:LM-63-2002
[TEST] 1
[TESTLAB] AOK
[TESTDATE] 2022-05-27
[ISSUEDATE] 2022-05-27 08:25:12
[NEARFIELD] 
[LAMPPOSITION] 0,0
[OTHER] EVERFINE GO-2000A_V1 SYSTEM
[MANUFAC] AOK
[LUMCAT] A
[LUMINAIRE] AOK-600WiSF-NV-S5-00-5070-15D-
[LAMPCAT] B
[LAMP] 5050
[BALLAST] E
[BALLASTCAT] F
[OTHER] 
[OTHER] Gamma(deg)    Fz(lm)      Ft(lm)     %Lum    %Lamp
[OTHER]   0- 10     33496.41    33496.41    46.89    46.89
[OTHER]  10- 20     17024.92    50521.33    70.72    70.72
[OTHER]  20- 30      6466.75    56988.08    79.77    79.77
[OTHER]  30- 40      4349.13    61337.21    85.86    85.86
[OTHER]  40- 50      3493.59    64830.80    90.75    90.75
[OTHER]  50- 60      2716.69    67547.49    94.55    94.55
[OTHER]  60- 70      1832.75    69380.24    97.12    97.12
[OTHER]  70- 80       927.21    70307.45    98.42    98.42
[OTHER]  80- 90       354.91    70662.36    98.91    98.91
[OTHER]  90-100       175.58    70837.95    99.16    99.16
[OTHER] 100-110       141.21    70979.15    99.36    99.36
[OTHER] 110-120       126.36    71105.51    99.53    99.53
[OTHER] 120-130        98.05    71203.56    99.67    99.67
[OTHER] 130-140        68.20    71271.75    99.77    99.77
[OTHER] 140-150        48.61    71320.37    99.84    99.84
[OTHER] 150-160        53.65    71374.02    99.91    99.91
[OTHER] 160-170        48.44    71422.46    99.98    99.98
[OTHER] 170-180        15.61    71438.07   100.00   100.00
[OTHER] 
TILT=NONE
1 71438 1 181 25 1 2 0.150 0.200 0.000
1.000 1 593.033
0.0    1.0    2.0    3.0    4.0    5.0    6.0    7.0    8.0    9.0    
 10.0   11.0   12.0   13.0   14.0   15.0   16.0   17.0   18.0   19.0   
 20.0   21.0   22.0   23.0   24.0   25.0   26.0   27.0   28.0   29.0   
 30.0   31.0   32.0   33.0   34.0   35.0   36.0   37.0   38.0   39.0   
 40.0   41.0   42.0   43.0   44.0   45.0   46.0   47.0   48.0   49.0   
 50.0   51.0   52.0   53.0   54.0   55.0   56.0   57.0   58.0   59.0   
 60.0   61.0   62.0   63.0   64.0   65.0   66.0   67.0   68.0   69.0   
 70.0   71.0   72.0   73.0   74.0   75.0   76.0   77.0   78.0   79.0   
 80.0   81.0   82.0   83.0   84.0   85.0   86.0   87.0   88.0   89.0   
 90.0   91.0   92.0   93.0   94.0   95.0   96.0   97.0   98.0   99.0   
 100.0  101.0  102.0  103.0  104.0  105.0  106.0  107.0  108.0  109.0  
 110.0  111.0  112.0  113.0  114.0  115.0  116.0  117.0  118.0  119.0  
 120.0  121.0  122.0  123.0  124.0  125.0  126.0  127.0  128.0  129.0  
 130.0  131.0  132.0  133.0  134.0  135.0  136.0  137.0  138.0  139.0  
 140.0  141.0  142.0  143.0  144.0  145.0  146.0  147.0  148.0  149.0  
 150.0  151.0  152.0  153.0  154.0  155.0  156.0  157.0  158.0  159.0  
 160.0  161.0  162.0  163.0  164.0  165.0  166.0  167.0  168.0  169.0  
 170.0  171.0  172.0  173.0  174.0  175.0  176.0  177.0  178.0  179.0  
 180.0  
0.0    15.0   30.0   45.0   60.0   75.0   90.0   105.0  120.0  135.0  
 150.0  165.0  180.0  195.0  210.0  225.0  240.0  255.0  270.0  285.0  
 300.0  315.0  330.0  345.0  360.0  
554460.88 553122.63 547996.62 532125.72 452858.56 372634.53 289359.72 197992.64 139545.88 101812.86 
 64321.96 26831.06 13598.25 636.41   350.19   199.24   48.30    35.14    27.30    22.15    
 18.88    16.61    14.64    13.25    12.05    10.89    9.89     9.61     9.38     10.05    
 10.37    9.71     8.69     7.77     7.41     7.22     7.17     6.87     6.83     6.40     
 6.22     6.07     5.89     5.47     5.27     5.23     5.16     4.99     4.70     4.52     
 4.43     4.38     4.38     4.25     4.24     4.17     4.02     3.93     3.88     3.75     
 3.65     3.59     3.57     3.49     3.39     3.33     3.29     3.25     3.21     3.19     
 3.16     3.14     3.12     3.10     3.06     3.05     3.03     3.02     3.02     3.02     
 3.02     3.06     3.19     3.37     3.48     3.57     3.67     3.72     3.78     3.80     
 3.86     3.92     3.94     3.95     4.01     4.08     4.17     4.29     4.46     4.66     
 4.87     5.14     5.43     5.75     6.11     6.49     6.89     7.34     7.79     8.25     
 8.68     9.12     9.53     9.93     10.37    10.85    11.34    11.86    12.44    13.06    
 13.70    14.35    15.05    15.78    16.53    17.34    18.20    19.10    20.03    21.00    
 22.00    23.05    24.16    25.28    26.43    27.64    28.96    30.39    31.99    33.67    
 35.63    37.87    40.56    43.69    47.39    51.88    57.27    63.85    71.85    82.08    
 94.62    108.91   124.93   142.09   161.40   181.05   200.47   219.46   239.54   259.64   
 276.66   291.65   304.01   312.17   316.09   316.36   313.23   307.10   299.11   289.53   
 279.15   267.67   255.62   243.24   230.56   217.41   203.72   189.51   174.72   158.32   
 138.50   
554460.88 551916.98 546100.51 533811.87 472983.69 387210.59 304283.14 221355.71 138754.00 99558.55 
 59284.49 44664.72 30044.96 15425.19 933.87   728.04   569.29   372.55   255.60   139.33   
 114.46   87.89    74.32    65.43    49.82    37.72    25.46    19.99    16.71    14.44    
 12.86    11.49    9.73     7.98     7.05     6.41     6.13     6.14     6.62     6.93     
 6.88     6.81     6.72     6.58     6.36     6.20     6.05     5.89     5.67     5.51     
 5.34     5.15     4.95     4.81     4.64     4.51     4.41     4.28     4.13     4.03     
 3.97     3.85     3.77     3.68     3.55     3.44     3.35     3.27     3.18     3.06     
 2.96     2.86     2.78     2.71     2.64     2.58     2.53     2.50     2.49     2.49     
 2.50     2.51     2.55     2.60     2.66     2.73     2.80     2.88     2.98     3.07     
 3.16     3.24     3.34     3.44     3.57     3.70     3.85     4.03     4.22     4.44     
 4.68     4.95     5.24     5.55     5.87     6.21     6.59     6.98     7.39     7.81     
 8.28     8.75     9.22     9.68     10.18    10.69    11.26    11.85    12.45    13.07    
 13.73    14.42    15.16    15.92    16.67    17.49    18.35    19.25    20.21    21.23    
 22.25    23.32    24.43    25.55    26.72    27.99    29.34    30.84    32.49    34.30    
 36.44    38.84    41.60    44.86    48.69    53.23    58.70    65.45    73.67    84.15    
 96.43    110.88   128.28   145.70   164.72   184.07   204.08   223.64   243.07   261.60   
 278.89   294.18   305.92   313.88   317.34   317.14   313.76   307.68   299.48   290.13   
 279.72   268.65   257.10   245.14   233.06   220.87   207.09   191.67   174.27   156.42   
 138.50   
554460.88 550187.21 542598.66 527228.93 491036.08 399542.23 311549.51 228521.19 158564.31 120750.10 
 83317.15 45884.20 28645.72 17367.46 11954.19 6602.83  1251.48  862.09   535.88   400.42   
 299.45   228.63   178.06   135.43   111.40   87.58    75.59    65.18    55.52    46.62    
 40.60    35.31    30.51    27.06    24.09    20.38    17.24    15.65    14.68    14.05    
 13.64    12.96    12.44    11.85    11.12    10.33    9.63     9.01     8.12     7.47     
 6.73     5.86     5.40     5.26     5.15     5.03     4.81     4.57     4.31     4.04     
 3.87     3.74     3.61     3.47     3.33     3.18     3.06     2.96     2.86     2.79     
 2.73     2.66     2.61     2.55     2.50     2.45     2.40     2.37     2.35     2.34     
 2.35     2.37     2.42     2.48     2.54     2.62     2.71     2.79     2.90     3.00     
 3.13     3.27     3.42     3.58     3.75     3.93     4.11     4.30     4.52     4.74     
 4.96     5.20     5.48     5.74     6.04     6.36     6.70     7.06     7.45     7.83     
 8.25     8.70     9.16     9.63     10.12    10.63    11.15    11.71    12.29    12.90    
 13.55    14.18    14.88    15.59    16.31    17.06    17.88    18.73    19.60    20.52    
 21.48    22.50    23.57    24.76    26.04    27.40    28.95    30.63    32.56    34.68    
 37.01    39.73    42.84    46.42    50.49    55.44    61.44    68.73    77.50    88.42    
 101.38   115.85   131.65   148.75   167.92   187.64   206.93   225.93   245.97   266.02   
 282.21   295.18   305.19   311.68   314.30   313.68   310.11   304.09   296.55   287.50   
 277.59   266.97   255.37   243.54   231.53   218.65   203.87   187.87   171.73   156.03   
 138.50   
554460.88 549453.81 540255.33 522957.53 489889.09 436937.07 344175.74 267092.81 190173.62 135221.53 
 99441.86 66166.96 52015.60 39235.19 26454.78 13757.20 10018.33 5673.91  1369.26  1047.24  
 771.47   544.64   377.17   301.57   225.97   150.71   114.13   91.61    77.58    67.26    
 59.04    51.92    46.20    41.46    37.54    34.20    31.25    28.54    26.19    23.81    
 20.87    17.68    15.50    14.14    13.21    12.41    11.67    11.02    10.46    9.82     
 9.11     8.47     7.86     7.38     6.95     6.59     6.28     5.98     5.70     5.43     
 5.15     4.91     4.70     4.51     4.32     4.14     3.95     3.75     3.53     3.34     
 3.16     2.97     2.82     2.67     2.54     2.44     2.34     2.23     2.14     2.11     
 2.12     2.14     2.18     2.25     2.32     2.41     2.50     2.59     2.71     2.83     
 2.97     3.11     3.27     3.42     3.60     3.78     3.97     4.18     4.39     4.64     
 4.90     5.15     5.43     5.71     6.02     6.33     6.68     7.03     7.39     7.75     
 8.14     8.56     8.99     9.41     9.82     10.30    10.81    11.32    11.81    12.33    
 12.87    13.43    14.01    14.61    15.21    15.84    16.50    17.22    17.98    18.75    
 19.61    20.55    21.60    22.68    23.91    25.25    26.79    28.49    30.39    32.52    
 34.95    37.76    40.86    44.54    48.87    54.10    60.36    67.90    76.90    87.76    
 100.08   115.30   130.54   147.79   166.28   185.44   204.99   224.19   242.89   259.94   
 274.76   287.18   296.39   302.72   305.76   305.96   303.41   298.50   291.91   283.77   
 274.61   264.29   253.40   242.14   230.00   216.97   203.14   188.69   174.35   161.02   
 138.50   
554460.88 547709.04 535061.08 511545.65 469769.90 411146.88 343988.66 277086.58 213328.64 155930.00 
 117252.40 92583.85 68072.79 53483.53 42072.05 29121.96 22753.80 18698.88 12195.68 9726.83  
 7307.72  4338.13  3238.17  1379.83  989.88   616.16   471.74   356.48   258.25   196.38   
 159.21   134.58   116.35   98.19    85.42    73.48    63.55    55.25    48.25    42.78    
 37.99    34.21    31.03    28.13    25.55    23.49    21.46    19.34    17.59    15.11    
 12.87    11.47    10.65    9.99     9.44     8.97     8.59     8.24     7.93     7.64     
 7.37     7.14     6.91     6.69     6.51     6.35     6.19     6.05     5.89     5.71     
 5.52     5.26     5.00     4.68     4.34     4.01     3.66     3.33     3.00     2.62     
 2.41     2.37     2.38     2.43     2.50     2.58     2.67     2.77     2.89     3.00     
 3.15     3.29     3.46     3.63     3.82     4.02     4.23     4.47     4.71     4.97     
 5.23     5.51     5.80     6.11     6.43     6.75     7.08     7.43     7.79     8.15     
 8.54     8.93     9.34     9.74     10.17    10.62    11.08    11.54    12.03    12.53    
 13.03    13.53    14.04    14.57    15.11    15.66    16.25    16.86    17.50    18.15    
 18.85    19.63    20.47    21.41    22.43    23.55    24.90    26.44    28.18    30.22    
 32.48    35.14    38.30    42.14    46.74    52.27    58.94    67.04    76.81    87.90    
 100.64   114.78   130.50   147.45   165.34   183.37   201.37   218.89   234.85   250.06   
 265.27   276.38   285.13   291.51   295.10   296.07   294.67   291.06   285.39   278.43   
 270.88   262.23   252.07   241.53   230.21   218.13   205.61   193.12   180.81   168.94   
 138.50   
554460.88 547233.95 534074.17 509019.14 466289.06 406852.85 339773.14 283740.18 227707.16 171826.70 
 135702.73 109447.73 89660.33 73400.32 59911.57 49087.15 39351.65 30602.73 25894.96 21194.86 
 17530.83 14223.19 11044.78 9071.27  7602.07  6282.34  5105.20  4250.33  3647.49  3144.48  
 2698.84  2253.97  1910.48  1632.82  1383.65  1121.81  906.75   721.89   555.23   424.18   
 332.34   277.81   223.28   168.93   136.96   111.90   91.44    75.68    63.88    54.55    
 47.85    42.27    37.21    33.30    30.04    27.25    24.91    23.03    21.54    20.05    
 18.84    17.62    16.23    15.07    13.75    13.19    12.92    12.70    12.58    12.47    
 12.33    12.17    11.94    11.81    11.62    11.35    10.94    10.13    9.05     7.52     
 5.81     3.04     1.99     2.01     2.07     2.13     2.21     2.28     2.37     2.47     
 2.58     2.70     2.83     2.99     3.15     3.32     3.50     3.69     3.91     4.13     
 4.37     4.61     4.87     5.14     5.43     5.71     6.02     6.34     6.68     7.02     
 7.38     7.75     8.14     8.53     8.92     9.32     9.74     10.19    10.63    11.08    
 11.54    12.02    12.52    13.03    13.52    14.02    14.53    15.06    15.59    16.12    
 16.69    17.28    17.94    18.65    19.46    20.40    21.51    22.77    24.24    25.98    
 28.12    30.62    33.63    37.35    41.88    47.55    54.30    62.55    72.04    83.27    
 95.69    109.66   125.42   141.20   157.92   174.86   192.01   208.06   223.83   238.15   
 250.96   262.35   271.71   279.56   285.11   288.68   290.78   290.48   286.32   281.76   
 275.78   269.35   260.72   251.03   240.80   229.21   217.57   204.74   191.91   179.27   
 138.50   
554460.88 547835.31 536071.88 512638.14 471149.77 411297.36 345292.36 287772.84 230253.33 172945.06 
 135774.34 108656.04 88731.70 73163.83 60291.05 50056.37 41843.65 35195.56 29848.08 26015.06 
 22182.03 18360.70 15633.81 13313.24 11427.94 10038.15 9062.15  8300.40  7727.08  7257.46  
 6855.69  6481.91  6110.79  5771.25  5486.48  5182.90  4894.00  4635.49  4395.53  4153.29  
 3914.94  3678.93  3457.92  3287.77  3128.70  2955.50  2764.25  2587.13  2410.12  2243.34  
 2081.51  1925.22  1770.44  1625.36  1476.20  1337.09  1201.13  1076.00  953.40   844.32   
 744.33   648.77   558.04   474.40   395.06   320.67   264.71   208.76   153.02   115.98   
 84.57    61.40    43.74    29.01    16.34    7.17     3.41     2.61     2.41     1.91     
 1.63     1.53     1.45     1.38     1.33     1.28     1.23     1.16     1.03     0.92     
 0.85     0.75     0.68     0.68     0.69     0.71     0.72     0.74     0.77     0.80     
 0.83     0.87     0.90     0.94     0.98     1.03     1.08     1.13     1.19     1.24     
 1.30     1.34     1.40     1.45     1.52     1.57     1.63     1.70     1.77     1.85     
 1.91     1.99     2.07     2.15     2.23     2.31     2.39     2.49     2.58     2.68     
 2.79     2.91     3.04     3.19     3.36     3.55     3.76     4.03     4.33     4.69     
 5.14     5.69     6.33     7.13     8.07     9.23     10.51    11.92    13.48    15.23    
 17.13    19.15    21.30    23.64    26.09    28.58    31.20    33.83    36.45    39.07    
 41.64    44.21    46.79    49.29    51.81    54.29    56.77    59.40    62.08    65.73    
 69.14    72.98    77.74    83.65    90.85    99.40    109.47   121.12   133.99   148.06   
 138.50   
554460.88 547541.06 535159.25 511560.18 471495.12 416076.91 352090.83 287713.67 230104.23 181100.60 
 143452.01 115835.95 97719.97 79682.77 66849.13 56571.00 48548.58 41888.62 36306.51 31438.13 
 27218.46 23489.24 20364.44 17410.29 15107.96 13315.23 11953.91 11188.53 10427.55 9666.56  
 9190.27  8795.80  8462.10  8155.45  7899.35  7670.98  7468.21  7256.65  7050.67  6855.07  
 6667.37  6463.38  6272.09  6088.72  5915.95  5737.42  5541.68  5359.06  5195.67  5047.66  
 4911.06  4769.90  4630.25  4485.54  4344.69  4196.85  4044.66  3896.73  3750.39  3598.60  
 3444.04  3297.27  3155.62  3015.18  2863.07  2706.95  2545.72  2394.20  2241.20  2088.97  
 1945.72  1802.15  1658.58  1511.11  1371.40  1241.50  1128.81  1016.27  903.74   808.98   
 724.03   651.39   583.26   525.78   476.11   432.56   396.54   365.24   340.45   314.58   
 288.58   267.07   254.55   244.41   227.94   211.81   197.98   184.85   173.44   162.21   
 152.08   143.72   135.72   128.68   121.84   114.99   109.26   104.37   98.95    93.46    
 88.49    83.64    78.32    73.15    68.40    63.63    59.14    54.97    50.72    46.54    
 42.63    38.90    35.01    30.89    26.61    22.71    18.82    15.13    11.70    7.90     
 5.97     4.46     3.18     2.40     2.22     2.24     2.38     2.55     2.75     3.00     
 3.31     3.70     4.20     4.80     5.60     6.59     7.72     8.98     10.47    12.13    
 13.93    15.85    17.91    20.16    22.47    24.83    27.26    29.64    32.03    34.30    
 36.47    38.60    40.60    42.57    44.44    46.30    48.21    50.24    52.50    55.44    
 58.28    61.49    65.52    70.75    77.38    85.39    95.59    107.81   121.05   135.80   
 138.50   
554460.88 548868.50 538322.20 519361.07 486236.72 438613.89 380623.49 319150.56 262371.50 205748.35 
 164030.98 133839.96 111404.81 94274.25 80428.93 69504.45 60977.06 53899.66 47661.39 42346.09 
 37467.58 32960.45 28929.96 25474.19 22028.41 19455.75 17196.25 15333.70 13793.31 12584.79 
 11612.51 10830.45 10245.60 9825.53  9534.61  9298.16  9075.70  8847.01  8620.51  8414.02  
 8215.82  8024.86  7843.93  7660.91  7466.61  7275.70  7074.28  6876.44  6683.75  6497.80  
 6320.17  6153.08  5985.52  5812.07  5627.19  5441.21  5261.05  5077.64  4883.34  4692.89  
 4498.04  4294.31  4098.43  3906.50  3717.78  3527.05  3341.77  3154.44  2958.36  2748.72  
 2548.91  2349.28  2165.29  1984.14  1808.18  1643.92  1483.89  1341.01  1199.84  1075.87  
 959.72   861.75   773.41   698.80   639.96   589.81   549.29   511.18   481.20   450.98   
 422.08   395.59   373.20   355.99   340.69   325.87   312.64   299.22   287.40   276.98   
 266.15   257.19   249.11   241.59   234.20   226.82   220.57   215.29   210.66   206.03   
 201.71   197.65   193.84   190.12   186.36   182.87   179.15   175.62   171.94   168.29   
 164.72   160.91   156.88   152.67   148.39   143.71   139.24   134.67   129.95   125.16   
 120.29   115.43   110.56   105.49   100.49   95.10    89.33    83.65    78.23    72.56    
 66.64    61.26    55.92    50.46    44.95    41.07    32.52    14.62    11.15    9.84     
 10.94    12.81    14.92    17.26    19.73    22.35    25.07    27.80    30.58    33.34    
 36.03    38.54    40.93    43.25    45.44    47.43    49.15    50.84    52.41    54.02    
 55.95    58.38    61.97    65.95    70.79    78.08    87.48    99.22    112.71   127.73   
 138.50   
554460.88 549414.89 539281.07 522207.02 494551.95 453786.03 400326.53 340984.06 281508.38 226664.58 
 181052.63 147362.50 122851.72 108180.87 93589.32 78997.77 70473.69 63320.06 56957.18 50765.14 
 45356.50 40207.92 35719.31 31360.96 27650.02 24481.81 21855.45 19512.36 17444.82 15741.57 
 14255.70 13048.03 12091.89 11555.89 11023.54 10491.19 10117.84 9780.11  9474.29  9211.22  
 8979.31  8755.98  8537.07  8326.88  8132.14  7935.18  7747.27  7561.41  7378.34  7181.46  
 6988.16  6795.15  6604.12  6419.41  6241.47  6045.83  5833.86  5616.63  5399.74  5182.07  
 4954.52  4735.00  4512.97  4282.64  4051.83  3831.27  3615.54  3396.30  3177.03  2951.45  
 2734.89  2531.83  2331.01  2128.08  1937.73  1757.76  1581.04  1415.00  1266.42  1148.61  
 1031.07  913.53   821.47   743.94   680.94   629.21   579.45   536.88   505.59   477.33   
 447.94   418.25   394.85   373.67   357.23   345.10   336.71   329.59   322.31   314.60   
 307.27   300.66   294.96   289.73   285.05   281.40   278.28   275.53   272.96   270.35   
 267.78   265.25   263.32   261.77   260.06   258.52   256.85   254.80   252.91   251.24   
 249.35   247.34   244.61   240.89   237.03   233.05   228.89   224.19   219.19   214.30   
 209.55   204.45   199.44   194.13   188.31   182.69   176.82   170.83   164.57   157.98   
 151.18   144.88   138.80   132.58   126.46   118.75   111.03   103.06   96.23    90.65    
 83.37    76.92    70.01    66.54    63.31    50.71    31.35    30.43    31.79    33.71    
 35.63    37.65    40.48    43.51    46.47    49.37    51.92    53.98    55.72    57.17    
 58.49    59.81    61.41    63.83    67.49    73.05    81.31    92.02    104.81   119.72   
 138.50   
