IESNA:LM-63-2002
[TEST] 1
[TESTLAB] AOK
[TESTDATE] 2022-06-25
[ISSUEDATE] 2022-06-25 15:53:35
[NEARFIELD] 
[LAMPPOSITION] 0,0
[OTHER] EVERFINE GO-2000A_V1 SYSTEM
[MANUFAC] AOK
[LUMCAT] A
[LUMINAIRE] AOK-600WiSF-NV-S35-00-5070-2030D-P
[LAMPCAT] B
[LAMP] 3535
[BALLAST] E
[BALLASTCAT] F
[OTHER] 
[OTHER] Gamma(deg)    Fz(lm)      Ft(lm)     %Lum    %Lamp
[OTHER]   0- 10     22668.01    22668.01    32.09    32.09
[OTHER]  10- 20     23998.32    46666.33    66.06    66.06
[OTHER]  20- 30      9830.79    56497.12    79.98    79.98
[OTHER]  30- 40      4901.55    61398.67    86.92    86.92
[OTHER]  40- 50      3138.99    64537.66    91.36    91.36
[OTHER]  50- 60      2473.99    67011.66    94.86    94.86
[OTHER]  60- 70      1698.10    68709.75    97.27    97.27
[OTHER]  70- 80       811.75    69521.50    98.41    98.41
[OTHER]  80- 90       351.00    69872.50    98.91    98.91
[OTHER]  90-100       195.38    70067.88    99.19    99.19
[OTHER] 100-110       143.62    70211.50    99.39    99.39
[OTHER] 110-120       115.80    70327.31    99.56    99.56
[OTHER] 120-130        87.84    70415.14    99.68    99.68
[OTHER] 130-140        63.38    70478.53    99.77    99.77
[OTHER] 140-150        51.26    70529.79    99.84    99.84
[OTHER] 150-160        52.70    70582.49    99.92    99.92
[OTHER] 160-170        43.13    70625.62    99.98    99.98
[OTHER] 170-180        15.61    70641.23   100.00   100.00
[OTHER] 
TILT=NONE
1 70641 1 181 25 1 2 0.150 0.200 0.000
1.000 1 570.427
0.0    1.0    2.0    3.0    4.0    5.0    6.0    7.0    8.0    9.0    
 10.0   11.0   12.0   13.0   14.0   15.0   16.0   17.0   18.0   19.0   
 20.0   21.0   22.0   23.0   24.0   25.0   26.0   27.0   28.0   29.0   
 30.0   31.0   32.0   33.0   34.0   35.0   36.0   37.0   38.0   39.0   
 40.0   41.0   42.0   43.0   44.0   45.0   46.0   47.0   48.0   49.0   
 50.0   51.0   52.0   53.0   54.0   55.0   56.0   57.0   58.0   59.0   
 60.0   61.0   62.0   63.0   64.0   65.0   66.0   67.0   68.0   69.0   
 70.0   71.0   72.0   73.0   74.0   75.0   76.0   77.0   78.0   79.0   
 80.0   81.0   82.0   83.0   84.0   85.0   86.0   87.0   88.0   89.0   
 90.0   91.0   92.0   93.0   94.0   95.0   96.0   97.0   98.0   99.0   
 100.0  101.0  102.0  103.0  104.0  105.0  106.0  107.0  108.0  109.0  
 110.0  111.0  112.0  113.0  114.0  115.0  116.0  117.0  118.0  119.0  
 120.0  121.0  122.0  123.0  124.0  125.0  126.0  127.0  128.0  129.0  
 130.0  131.0  132.0  133.0  134.0  135.0  136.0  137.0  138.0  139.0  
 140.0  141.0  142.0  143.0  144.0  145.0  146.0  147.0  148.0  149.0  
 150.0  151.0  152.0  153.0  154.0  155.0  156.0  157.0  158.0  159.0  
 160.0  161.0  162.0  163.0  164.0  165.0  166.0  167.0  168.0  169.0  
 170.0  171.0  172.0  173.0  174.0  175.0  176.0  177.0  178.0  179.0  
 180.0  
0.0    15.0   30.0   45.0   60.0   75.0   90.0   105.0  120.0  135.0  
 150.0  165.0  180.0  195.0  210.0  225.0  240.0  255.0  270.0  285.0  
 300.0  315.0  330.0  345.0  360.0  
315853.75 317128.18 315247.70 308439.94 278449.32 230582.52 186739.21 139167.44 106048.08 73105.19 
 40162.29 22418.04 13281.44 10040.92 6863.77  3686.61  509.46   326.88   147.50   96.08    
 46.23    34.10    26.90    21.72    18.13    15.65    13.57    12.00    10.82    9.84     
 9.18     9.34     9.64     9.67     9.18     8.47     8.01     7.12     6.32     5.64     
 5.37     5.26     4.94     4.80     4.56     4.41     4.41     4.50     4.27     3.92     
 3.79     3.68     3.65     3.67     3.74     3.87     3.81     3.71     3.63     3.62     
 3.62     3.62     3.65     3.66     3.63     3.63     3.61     3.59     3.56     3.55     
 3.55     3.55     3.55     3.53     3.52     3.51     3.51     3.52     3.51     3.50     
 3.49     3.49     3.50     3.53     3.74     3.98     4.11     4.23     4.27     4.32     
 4.37     4.44     4.52     4.53     4.53     4.56     4.65     4.77     4.93     5.12     
 5.36     5.60     5.89     6.21     6.55     6.93     7.31     7.67     8.01     8.35     
 8.68     9.01     9.33     9.64     9.96     10.32    10.72    11.16    11.61    12.10    
 12.60    13.14    13.69    14.29    14.91    15.55    16.24    16.98    17.73    18.52    
 19.35    20.19    21.06    21.95    22.91    23.95    25.21    26.75    28.58    30.72    
 33.16    35.94    39.11    42.75    46.89    51.56    56.86    62.94    69.66    77.84    
 87.57    98.64    110.97   124.29   138.31   152.94   169.02   185.26   201.22   216.59   
 232.30   248.01   260.92   271.78   280.25   285.68   288.32   288.05   285.08   279.80   
 272.64   263.92   253.97   243.13   231.49   219.32   207.01   194.18   180.10   164.68   
 148.37   
315853.75 316875.08 315556.02 309886.39 296849.96 251194.28 205571.63 163257.80 115254.63 82968.76 
 53769.90 40713.73 27657.56 14601.40 1659.54  1431.80  1243.77  830.35   770.69   623.45   
 505.76   409.72   313.69   217.93   154.52   123.70   92.87    73.53    57.89    46.09    
 40.84    36.67    34.41    28.00    19.87    16.02    13.49    11.46    9.95     8.74     
 8.11     8.12     8.11     8.07     7.73     7.43     7.18     6.96     6.79     6.49     
 6.11     5.85     5.60     5.39     5.19     5.00     4.82     4.64     4.52     4.39     
 4.21     4.06     3.89     3.74     3.60     3.51     3.42     3.33     3.27     3.20     
 3.12     3.04     2.98     2.92     2.88     2.84     2.80     2.79     2.79     2.80     
 2.82     2.85     2.89     2.93     2.98     3.05     3.10     3.18     3.27     3.36     
 3.48     3.59     3.69     3.82     3.96     4.12     4.30     4.50     4.72     4.96     
 5.22     5.49     5.78     6.10     6.44     6.78     7.13     7.47     7.80     8.13     
 8.47     8.80     9.15     9.51     9.87     10.27    10.72    11.21    11.71    12.22    
 12.76    13.34    13.96    14.59    15.26    15.95    16.69    17.47    18.27    19.10    
 19.94    20.81    21.70    22.64    23.71    24.93    26.46    28.22    30.30    32.67    
 35.47    38.56    42.05    45.96    50.34    55.42    61.13    67.67    75.26    84.13    
 94.33    105.73   119.18   132.65   147.11   162.22   177.81   193.23   209.08   224.32   
 239.24   252.94   265.10   275.16   282.25   286.28   287.31   285.54   281.11   274.55   
 266.50   257.02   246.75   235.83   224.21   212.15   199.52   185.88   171.47   157.31   
 148.37   
315853.75 315932.22 313789.03 307254.31 296939.90 268430.35 223056.10 185278.69 147518.99 116160.13 
 84877.57 53595.02 36078.73 20513.03 14643.64 8471.02  2294.16  2028.65  1726.79  1281.79  
 995.71   711.56   603.76   457.04   341.76   276.50   213.63   159.77   146.08   122.52   
 98.83    81.15    70.26    60.73    53.50    46.40    40.53    34.29    29.45    25.24    
 21.85    18.25    15.91    14.30    13.27    12.28    11.43    10.87    10.30    9.47     
 8.79     8.01     7.20     6.65     6.27     6.00     5.68     5.34     4.99     4.66     
 4.40     4.22     4.08     3.96     3.81     3.63     3.44     3.26     3.12     3.02     
 2.94     2.87     2.80     2.74     2.69     2.64     2.59     2.52     2.49     2.46     
 2.45     2.45     2.50     2.57     2.66     2.73     2.83     2.94     3.07     3.20     
 3.35     3.51     3.69     3.88     4.08     4.29     4.52     4.75     4.99     5.23     
 5.49     5.73     5.99     6.26     6.54     6.84     7.14     7.47     7.81     8.16     
 8.53     8.90     9.30     9.70     10.13    10.58    11.05    11.53    12.02    12.53    
 13.07    13.64    14.23    14.85    15.48    16.13    16.85    17.59    18.37    19.21    
 20.15    21.20    22.46    23.94    25.58    27.50    29.65    32.15    34.91    38.03    
 41.44    45.30    49.54    54.48    60.09    66.34    73.40    81.25    89.95    100.01   
 111.24   123.32   135.87   148.94   162.11   175.48   189.90   204.56   218.62   231.81   
 244.20   256.58   265.48   271.85   275.87   277.30   276.32   272.93   267.79   260.98   
 252.73   243.72   233.88   223.41   212.26   200.80   189.16   176.82   165.39   154.79   
 148.37   
315853.75 315987.67 312899.62 307025.36 297924.56 285374.73 254618.99 223863.23 193091.85 160225.85 
 125391.32 97799.12 68057.77 55241.02 37107.98 28615.73 20123.49 11681.20 8369.83  5058.47  
 1770.50  1525.19  1100.28  785.97   535.94   417.64   299.35   181.88   152.31   130.46   
 112.85   99.01    87.58    78.14    69.94    62.63    55.75    50.34    45.79    41.23    
 36.89    33.11    29.77    26.48    23.64    20.63    17.59    15.14    13.13    11.79    
 10.90    10.16    9.53     9.01     8.55     8.15     7.74     7.39     7.09     6.79     
 6.52     6.24     5.99     5.74     5.55     5.36     5.18     4.96     4.74     4.49     
 4.25     3.99     3.74     3.53     3.33     3.10     2.89     2.72     2.56     2.41     
 2.34     2.34     2.38     2.44     2.52     2.61     2.73     2.84     2.97     3.11     
 3.26     3.43     3.59     3.77     3.97     4.17     4.38     4.60     4.83     5.07     
 5.32     5.58     5.84     6.13     6.44     6.74     7.06     7.39     7.74     8.09     
 8.44     8.83     9.22     9.62     10.02    10.44    10.87    11.32    11.78    12.28    
 12.79    13.34    13.92    14.54    15.21    15.95    16.81    17.81    18.89    20.08    
 21.43    22.98    24.71    26.61    28.74    31.08    33.82    36.76    40.02    43.67    
 47.88    52.53    57.74    63.55    70.01    77.37    85.32    94.13    103.57   113.77   
 125.27   136.77   148.47   160.96   173.41   186.25   198.86   210.68   222.28   232.60   
 241.64   249.06   254.94   259.05   261.19   261.57   260.24   257.24   252.87   247.15   
 241.08   233.72   225.28   216.57   207.25   197.79   187.81   178.12   168.76   160.10   
 148.37   
315853.75 314507.30 309623.35 302505.56 292848.86 281718.59 267754.60 251084.99 232508.75 206773.10 
 172019.33 141230.02 120661.50 98065.57 75446.26 60681.77 41967.49 31425.43 25160.84 18589.89 
 12655.94 9807.36  6994.89  5228.62  4234.91  1701.69  1159.55  942.88   729.33   523.17   
 377.80   281.42   224.64   187.20   156.94   131.76   113.87   96.06    82.49    71.44    
 62.74    55.87    50.14    45.12    40.90    36.83    33.41    30.82    28.50    26.44    
 24.69    22.89    20.79    18.80    16.66    14.61    13.01    11.82    11.05    10.49    
 10.11    9.85     9.55     9.28     9.05     8.87     8.68     8.51     8.35     8.16     
 7.92     7.65     7.32     6.94     6.50     6.01     5.46     4.79     4.11     3.43     
 2.86     2.62     2.60     2.62     2.71     2.80     2.90     3.02     3.14     3.27     
 3.42     3.58     3.75     3.93     4.13     4.34     4.57     4.80     5.06     5.33     
 5.60     5.89     6.19     6.50     6.83     7.16     7.51     7.84     8.20     8.56     
 8.92     9.30     9.67     10.06    10.47    10.89    11.33    11.80    12.29    12.81    
 13.39    14.01    14.73    15.51    16.37    17.33    18.37    19.56    20.88    22.30    
 23.83    25.57    27.51    29.63    32.05    34.74    37.84    41.44    45.50    50.05    
 55.15    60.86    67.09    74.22    82.08    90.41    99.32    108.59   118.23   128.55   
 139.46   150.55   161.46   172.21   182.59   192.54   202.57   211.86   220.09   227.15   
 233.14   238.31   243.47   245.75   246.86   246.79   245.70   243.30   239.87   235.49   
 230.48   224.94   218.74   211.99   204.91   197.74   190.48   183.04   175.35   167.65   
 148.37   
315853.75 313532.55 308747.98 301381.04 291561.81 280372.01 267995.42 252808.01 237620.61 222407.75 
 203900.89 184225.43 163036.41 141181.13 119974.47 100678.37 83573.84 67955.93 54461.33 42061.24 
 33795.07 28777.96 25217.55 21656.29 18000.84 15073.59 13090.24 11395.59 9726.07  7686.83  
 6176.15  5081.36  4150.32  3456.04  2846.97  2239.84  1859.28  1551.65  1256.76  1023.76  
 828.95   655.47   517.00   413.54   334.58   266.34   198.32   156.98   126.14   102.73   
 85.95    73.31    62.97    55.47    48.61    43.54    39.56    35.90    33.19    31.02    
 29.25    27.53    26.18    24.99    23.97    22.81    21.39    19.96    18.80    18.06    
 17.69    17.58    17.47    17.34    17.19    16.97    16.60    15.94    14.48    12.27    
 9.20     5.47     2.34     2.20     2.26     2.33     2.41     2.49     2.58     2.68     
 2.80     2.92     3.07     3.23     3.39     3.58     3.77     3.99     4.22     4.46     
 4.72     4.98     5.26     5.56     5.86     6.18     6.51     6.86     7.23     7.59     
 7.96     8.35     8.76     9.17     9.57     9.98     10.43    10.92    11.42    11.96    
 12.55    13.22    13.95    14.75    15.62    16.63    17.70    18.87    20.17    21.59    
 23.14    24.86    26.84    29.05    31.55    34.41    37.82    41.67    45.99    50.93    
 56.59    62.83    69.62    77.06    85.03    93.57    102.37   111.56   121.43   131.30   
 140.99   150.84   160.22   169.77   179.03   187.96   196.49   204.28   211.89   218.75   
 224.82   230.31   234.97   238.83   241.59   243.39   244.17   244.29   242.70   240.32   
 237.41   233.61   228.81   223.08   216.83   210.00   202.51   194.87   186.51   178.23   
 148.37   
315853.75 311801.77 305541.40 297342.68 286951.36 275926.18 264106.77 251136.73 236617.08 222078.14 
 205693.64 187482.37 168177.02 146672.85 125642.85 105492.82 87863.52 73005.98 61345.78 52016.66 
 44570.02 38457.91 33741.62 29952.46 26721.99 24238.94 21760.62 19678.72 17683.96 15769.93 
 13931.27 12219.13 10705.90 9363.18  8271.92  7380.69  6688.23  6087.97  5595.24  5203.01  
 4853.20  4547.01  4294.63  4118.27  3943.50  3769.29  3574.61  3352.40  3110.24  2852.17  
 2618.31  2384.82  2180.78  1988.21  1811.13  1644.83  1490.14  1342.21  1211.75  1097.67  
 993.51   896.70   805.71   721.38   642.77   569.98   503.55   442.87   388.73   341.26   
 299.91   265.20   230.49   195.90   171.00   149.68   131.65   116.41   101.89   90.06    
 78.60    67.94    55.52    7.25     2.46     2.04     1.68     1.52     1.39     1.31     
 1.21     1.12     1.11     1.11     1.12     1.14     1.17     1.19     1.21     1.24     
 1.28     1.31     1.35     1.38     1.42     1.46     1.50     1.54     1.60     1.65     
 1.69     1.75     1.81     1.87     1.93     1.99     2.07     2.16     2.25     2.35     
 2.45     2.56     2.68     2.81     2.96     3.12     3.31     3.51     3.73     3.98     
 4.27     4.59     4.95     5.37     5.86     6.41     7.04     7.76     8.58     9.47     
 10.50    11.63    12.85    14.18    15.63    17.21    18.83    20.48    22.21    23.99    
 25.84    27.71    29.65    31.65    33.70    35.82    38.07    40.48    43.01    45.66    
 48.39    51.30    54.45    57.86    61.51    65.45    69.70    74.90    80.03    86.25    
 93.35    101.24   109.64   118.61   127.91   137.64   147.60   157.46   166.95   176.03   
 148.37   
315853.75 311354.27 304605.46 296542.80 286820.51 275976.10 265172.35 253585.21 240814.40 226424.73 
 210686.81 192975.33 174344.34 154488.96 135173.36 114880.26 97602.08 80346.19 67174.56 57274.25 
 49755.38 44311.80 39913.64 36324.33 33361.47 30505.68 28023.49 25703.57 23378.52 21174.81 
 18944.87 16894.89 15011.18 13285.75 11773.42 10598.86 9427.06  8595.44  7935.35  7442.22  
 7032.14  6705.85  6410.93  6148.86  5920.48  5721.00  5527.74  5340.48  5160.44  4985.62  
 4795.45  4591.54  4375.98  4148.80  3913.56  3683.82  3462.47  3259.48  3076.92  2903.67  
 2731.29  2575.66  2426.08  2284.50  2150.54  2019.43  1889.14  1765.22  1641.75  1527.43  
 1419.14  1316.88  1216.12  1121.40  1026.74  944.40   864.54   790.17   718.33   656.27   
 599.43   547.60   501.59   460.62   423.81   392.94   365.71   341.00   322.95   303.92   
 285.70   269.20   255.37   241.86   229.72   218.57   207.01   196.25   187.21   177.68   
 169.08   161.05   153.75   146.84   140.07   133.38   127.13   121.73   116.34   110.91   
 105.93   101.22   96.24    91.36    86.36    81.63    77.68    73.42    69.45    64.86    
 60.78    56.99    52.75    48.57    44.27    40.09    35.42    29.00    22.82    16.49    
 12.11    9.70     8.12     6.55     4.94     4.54     4.85     5.38     6.05     6.84     
 7.71     8.69     9.74     10.91    12.19    13.56    14.99    16.51    18.10    19.75    
 21.46    23.15    24.88    26.64    28.41    30.17    32.00    33.90    35.74    37.67    
 39.68    41.80    44.01    46.36    48.81    51.58    54.84    58.87    63.67    69.37    
 76.02    84.22    93.09    102.78   113.29   124.37   135.92   147.73   159.19   170.32   
 148.37   
315853.75 311401.26 305130.34 297240.73 288094.00 278465.05 267773.31 256458.42 242267.32 228046.58 
 210997.67 192264.24 173316.09 154399.81 135201.49 116628.20 99024.28 82756.96 69396.46 59830.99 
 53090.61 48016.13 43937.71 40433.53 37218.09 34290.69 31588.70 28784.67 26263.04 23741.41 
 21221.44 18866.32 16698.56 14729.66 13032.04 11590.11 10357.47 9333.72  8552.14  8010.74  
 7612.74  7314.21  7064.93  6859.80  6665.00  6472.01  6299.61  6125.04  5967.90  5810.08  
 5662.16  5514.35  5343.05  5160.59  4962.14  4761.61  4551.49  4335.40  4115.91  3877.60  
 3657.17  3440.54  3242.66  3056.68  2871.66  2694.02  2516.37  2338.83  2170.25  2001.72  
 1844.40  1697.38  1563.06  1431.12  1309.43  1188.91  1080.03  980.17   889.72   807.70   
 732.22   667.83   615.18   570.38   532.10   497.64   468.17   439.97   418.14   397.09   
 377.41   358.20   341.90   327.24   313.23   300.42   288.99   278.04   268.07   259.01   
 250.17   242.51   234.85   227.21   221.13   215.60   210.14   204.94   200.51   196.09   
 191.91   187.51   183.70   180.04   176.22   172.45   168.94   165.36   161.86   158.57   
 155.63   152.22   149.13   146.15   142.65   139.32   136.07   132.81   129.54   126.43   
 122.70   119.32   115.66   112.03   108.10   103.88   98.91    93.78    88.61    82.96    
 76.89    71.04    63.31    56.93    53.55    51.18    47.95    27.97    18.60    16.62    
 17.05    18.59    20.48    22.45    24.45    26.47    28.50    30.55    32.65    34.76    
 36.92    39.00    41.05    43.17    45.26    47.42    49.81    52.66    55.89    60.00    
 65.16    71.86    79.84    89.17    99.99    111.41   124.44   137.91   151.50   164.81   
 148.37   
315853.75 310910.83 303983.31 295976.88 287213.96 277644.34 266628.39 252493.62 234201.57 211663.81 
 187789.90 165871.35 146369.96 128699.06 114517.08 100362.44 86207.81 75382.82 66240.10 58994.69 
 53310.99 48533.48 44227.74 40028.25 35845.35 31753.06 27732.29 23911.39 20195.42 16884.91 
 14383.47 12675.35 11808.19 10948.53 10088.86 9624.20  9218.21  8846.17  8508.42  8199.46  
 7910.68  7638.42  7391.41  7154.98  6960.48  6764.36  6580.98  6421.62  6253.69  6071.72  
 5886.96  5701.68  5519.18  5355.42  5179.88  4988.71  4799.38  4607.68  4413.97  4213.07  
 4010.51  3802.12  3603.48  3406.12  3205.99  3012.20  2816.08  2621.14  2428.60  2235.68  
 2055.11  1893.79  1735.05  1581.46  1436.69  1303.14  1182.44  1075.71  969.10   883.89   
 809.37   742.80   681.83   631.35   586.76   547.68   510.57   481.81   459.29   438.59   
 417.78   398.90   381.96   367.62   355.14   343.78   333.78   325.19   317.70   310.13   
 303.32   297.43   291.89   286.82   282.10   277.69   273.63   269.99   266.66   262.89   
 259.47   256.05   253.32   250.47   247.35   244.45   241.64   238.83   235.98   232.87   
 229.32   225.90   222.31   218.93   215.56   212.18   208.68   204.75   200.90   197.14   
 193.07   189.18   184.90   180.61   176.24   172.13   167.85   163.61   159.02   154.39   
 149.86   144.85   140.55   135.89   131.51   124.94   118.34   110.75   104.01   95.43    
 90.61    84.34    77.20    74.28    72.45    64.55    34.24    30.00    31.41    32.09    
 33.89    36.04    38.60    41.33    44.05    46.82    49.47    52.09    54.99    58.20    
