IESNA:LM-63-2002
[TEST] 1
[TESTLAB] AOK
[TESTDATE] 2022-07-02
[ISSUEDATE] 2022-07-02 15:36:11
[NEARFIELD] 
[LAMPPOSITION] 0,0
[OTHER] EVERFINE GO-2000A_V1 SYSTEM
[MANUFAC] AOK
[LUMCAT] A
[LUMINAIRE] AOK-800WiSF-NV-S35-00-5070-2030D-P
[LAMPCAT] B
[LAMP] 3535
[BALLAST] E
[BALLASTCAT] F
[OTHER] 
[OTHER] Gamma(deg)    Fz(lm)      Ft(lm)     %Lum    %Lamp
[OTHER]   0- 10     30989.99    30989.99    30.94    30.94
[OTHER]  10- 20     35854.94    66844.92    66.75    66.75
[OTHER]  20- 30     15040.63    81885.55    81.76    81.76
[OTHER]  30- 40      6613.21    88498.76    88.37    88.37
[OTHER]  40- 50      3972.24    92471.00    92.33    92.33
[OTHER]  50- 60      3033.02    95504.02    95.36    95.36
[OTHER]  60- 70      2057.82    97561.85    97.42    97.42
[OTHER]  70- 80      1114.41    98676.26    98.53    98.53
[OTHER]  80- 90       519.54    99195.80    99.05    99.05
[OTHER]  90-100       282.18    99477.98    99.33    99.33
[OTHER] 100-110       189.21    99667.19    99.52    99.52
[OTHER] 110-120       138.04    99805.23    99.66    99.66
[OTHER] 120-130        96.98    99902.21    99.75    99.75
[OTHER] 130-140        63.60    99965.82    99.82    99.82
[OTHER] 140-150        47.64   100013.46    99.87    99.87
[OTHER] 150-160        55.69   100069.15    99.92    99.92
[OTHER] 160-170        57.50   100126.64    99.98    99.98
[OTHER] 170-180        21.51   100148.15   100.00   100.00
[OTHER] 
TILT=NONE
1 1.0015e+005 1 181 25 1 2 0.150 0.200 0.000
1.000 1 786.752
0.0    1.0    2.0    3.0    4.0    5.0    6.0    7.0    8.0    9.0    
 10.0   11.0   12.0   13.0   14.0   15.0   16.0   17.0   18.0   19.0   
 20.0   21.0   22.0   23.0   24.0   25.0   26.0   27.0   28.0   29.0   
 30.0   31.0   32.0   33.0   34.0   35.0   36.0   37.0   38.0   39.0   
 40.0   41.0   42.0   43.0   44.0   45.0   46.0   47.0   48.0   49.0   
 50.0   51.0   52.0   53.0   54.0   55.0   56.0   57.0   58.0   59.0   
 60.0   61.0   62.0   63.0   64.0   65.0   66.0   67.0   68.0   69.0   
 70.0   71.0   72.0   73.0   74.0   75.0   76.0   77.0   78.0   79.0   
 80.0   81.0   82.0   83.0   84.0   85.0   86.0   87.0   88.0   89.0   
 90.0   91.0   92.0   93.0   94.0   95.0   96.0   97.0   98.0   99.0   
 100.0  101.0  102.0  103.0  104.0  105.0  106.0  107.0  108.0  109.0  
 110.0  111.0  112.0  113.0  114.0  115.0  116.0  117.0  118.0  119.0  
 120.0  121.0  122.0  123.0  124.0  125.0  126.0  127.0  128.0  129.0  
 130.0  131.0  132.0  133.0  134.0  135.0  136.0  137.0  138.0  139.0  
 140.0  141.0  142.0  143.0  144.0  145.0  146.0  147.0  148.0  149.0  
 150.0  151.0  152.0  153.0  154.0  155.0  156.0  157.0  158.0  159.0  
 160.0  161.0  162.0  163.0  164.0  165.0  166.0  167.0  168.0  169.0  
 170.0  171.0  172.0  173.0  174.0  175.0  176.0  177.0  178.0  179.0  
 180.0  
0.0    15.0   30.0   45.0   60.0   75.0   90.0   105.0  120.0  135.0  
 150.0  165.0  180.0  195.0  210.0  225.0  240.0  255.0  270.0  285.0  
 300.0  315.0  330.0  345.0  360.0  
422379.09 422400.16 417977.63 408294.55 369087.47 325269.07 286254.08 234409.53 189108.24 142389.79 
 113045.82 83904.83 54763.83 47154.57 41635.11 37509.00 34168.24 26273.93 22240.83 17354.40 
 11578.12 7517.82  3477.78  1604.96  1071.71  552.91   34.10    21.65    18.02    16.75    
 15.91    14.49    13.53    12.57    11.64    10.45    9.56     8.75     8.29     8.17     
 8.02     7.85     7.67     7.46     6.96     6.61     6.36     5.98     5.55     5.37     
 5.05     4.80     4.61     4.52     4.39     4.28     4.13     4.06     4.02     4.00     
 3.98     3.96     3.93     3.92     3.91     3.90     3.89     3.89     3.87     3.86     
 3.84     3.81     3.79     3.76     3.73     3.70     3.67     3.64     3.62     3.60     
 3.59     3.59     3.59     3.59     3.61     3.62     3.68     3.71     3.79     3.87     
 3.97     4.09     4.21     4.36     4.51     4.68     4.84     5.04     5.23     5.44     
 5.64     5.85     6.08     6.33     6.60     6.87     7.14     7.43     7.72     8.02     
 8.34     8.67     9.02     9.38     9.75     10.15    10.56    10.99    11.43    11.91    
 12.40    12.89    13.41    13.96    14.53    15.13    15.78    16.48    17.22    18.02    
 18.88    19.84    20.89    22.10    23.54    25.19    27.23    29.64    32.41    35.57    
 39.05    42.94    47.39    52.14    57.35    63.18    69.61    76.82    85.17    95.26    
 106.83   119.91   134.10   150.41   168.60   187.35   206.52   226.11   247.06   268.02   
 286.68   304.53   321.81   336.34   348.35   357.09   362.61   364.79   363.52   359.24   
 352.70   344.53   334.62   323.87   312.00   298.95   284.78   269.55   253.16   235.16   
 216.38   
422379.09 423300.48 419618.98 411290.27 388911.87 339959.45 302461.51 256726.17 210976.40 163371.29 
 124231.57 93209.09 61459.71 50162.28 43375.00 38240.34 34379.69 29490.28 24600.88 19717.34 
 15614.62 10383.00 6126.77  4236.79  2346.82  472.12   308.79   146.90   136.28   95.90    
 74.90    87.51    59.21    34.54    25.10    20.69    18.28    16.71    15.69    14.74    
 14.23    13.43    12.50    11.64    10.83    9.99     9.06     7.99     7.29     6.76     
 6.29     5.99     5.78     5.53     5.26     5.05     5.12     5.32     5.36     5.34     
 5.22     5.07     4.92     4.77     4.63     4.50     4.38     4.22     4.09     3.97     
 3.85     3.74     3.69     3.64     3.57     3.50     3.43     3.37     3.32     3.24     
 3.21     3.22     3.22     3.25     3.29     3.33     3.38     3.43     3.51     3.61     
 3.72     3.85     3.98     4.14     4.30     4.48     4.65     4.85     5.05     5.27     
 5.49     5.71     5.96     6.22     6.50     6.77     7.05     7.35     7.66     7.97     
 8.28     8.61     8.96     9.33     9.70     10.08    10.50    10.93    11.35    11.82    
 12.31    12.83    13.38    13.91    14.48    15.08    15.72    16.40    17.12    17.89    
 18.74    19.71    20.80    22.07    23.62    25.44    27.69    30.30    33.20    36.56    
 40.41    44.57    49.09    54.03    59.51    65.64    72.50    80.22    88.99    99.30    
 110.80   124.78   138.78   155.03   172.32   190.52   209.55   228.45   248.05   266.98   
 285.44   302.80   319.01   333.25   343.92   351.90   356.55   357.83   356.15   351.64   
 344.99   336.47   326.99   316.29   304.80   292.08   278.20   263.43   247.76   231.02   
 216.38   
422379.09 423073.10 419748.01 412610.64 401544.07 366556.89 323590.80 286625.85 243239.80 199933.21 
 159442.54 124257.39 96777.92 69383.87 52134.95 44439.82 38762.36 34046.50 30229.07 26889.79 
 20135.43 16595.38 12586.50 9606.27  6637.67  4058.30  2245.64  1026.87  703.02   390.54   
 233.22   192.65   159.30   132.45   105.66   78.88    62.96    48.54    41.47    35.51    
 32.02    28.30    25.89    23.60    21.61    19.19    17.33    16.02    14.59    12.87    
 10.65    9.93     9.28     8.58     7.83     7.35     7.25     7.23     7.14     6.90     
 6.57     6.27     6.05     5.86     5.69     5.54     5.39     5.24     5.11     4.95     
 4.77     4.59     4.42     4.24     4.07     3.88     3.72     3.57     3.44     3.31     
 3.21     3.14     3.12     3.12     3.18     3.26     3.34     3.44     3.54     3.66     
 3.80     3.94     4.08     4.25     4.43     4.62     4.83     5.04     5.28     5.51     
 5.75     6.01     6.27     6.55     6.83     7.13     7.43     7.74     8.06     8.40     
 8.75     9.11     9.49     9.86     10.26    10.68    11.10    11.53    11.97    12.45    
 12.93    13.43    13.94    14.51    15.10    15.71    16.42    17.19    18.05    19.04    
 20.14    21.50    23.05    24.91    26.98    29.35    32.04    35.14    38.52    42.25    
 46.27    50.73    55.73    61.32    67.49    74.47    82.28    91.07    100.94   112.10   
 124.26   137.51   151.87   167.21   183.46   200.07   217.45   235.78   254.12   271.23   
 287.55   302.61   315.89   326.93   335.32   340.99   344.22   344.64   342.44   338.18   
 332.21   325.09   316.75   307.21   296.25   284.24   271.00   256.85   242.42   227.08   
 216.38   
422379.09 423273.85 420758.72 415340.62 405811.96 390659.11 361461.42 323938.43 292931.30 255373.01 
 217798.53 178304.65 152037.63 118975.48 98784.58 77962.40 60294.02 45288.53 38008.74 32707.13 
 28078.49 24787.69 21502.25 18867.23 15731.19 11908.64 9081.52  7251.57  5328.06  3818.62  
 2783.78  1751.35  1028.59  617.38   429.44   335.46   241.48   148.10   120.60   99.60    
 80.84    68.27    59.19    50.21    43.77    38.00    33.88    30.14    26.86    24.43    
 22.57    20.90    19.58    17.98    15.65    11.74    10.22    9.95     9.63     9.33     
 8.92     8.56     8.22     7.93     7.66     7.38     7.12     6.88     6.65     6.40     
 6.16     5.91     5.66     5.41     5.12     4.82     4.49     4.15     3.84     3.57     
 3.33     3.12     3.00     3.01     3.07     3.15     3.25     3.36     3.47     3.60     
 3.75     3.90     4.06     4.23     4.44     4.65     4.87     5.10     5.34     5.58     
 5.84     6.12     6.41     6.71     7.03     7.36     7.68     8.01     8.35     8.70     
 9.05     9.40     9.77     10.14    10.55    10.97    11.41    11.87    12.35    12.84    
 13.37    13.92    14.54    15.20    15.92    16.74    17.70    18.75    19.94    21.27    
 22.79    24.44    26.30    28.39    30.65    33.22    36.11    39.34    42.84    46.84    
 51.43    56.57    62.27    68.70    75.92    84.07    92.94    102.77   113.36   125.79   
 138.23   151.85   165.40   180.25   195.50   210.92   226.68   241.92   256.93   271.03   
 284.20   295.88   306.11   314.50   320.92   325.27   327.58   328.14   326.81   323.86   
 319.43   313.41   306.09   297.40   287.54   276.54   264.49   252.12   239.07   225.70   
 216.38   
422379.09 422282.45 419738.62 414426.68 403918.61 388112.54 374867.38 359394.34 338418.07 304993.39 
 269198.17 240484.20 211176.23 183926.41 157414.33 130512.47 110246.44 90047.96 69849.48 55619.25 
 43214.69 35539.12 29283.52 23785.65 21138.07 18537.60 16600.48 14711.20 13003.44 11458.04 
 9914.65  8371.25  6886.95  5353.48  4260.70  3298.05  2541.23  2013.65  1598.71  1254.08  
 964.14   674.89   467.18   331.70   234.73   179.99   145.05   123.03   101.16   79.29    
 67.58    59.12    52.87    46.97    41.49    37.78    34.54    31.58    29.19    27.12    
 24.72    22.52    19.54    14.34    12.66    11.79    11.26    10.66    10.07    9.55     
 9.10     8.64     8.27     7.88     7.44     7.03     6.60     6.11     5.57     5.00     
 4.45     3.95     3.54     3.38     3.37     3.45     3.55     3.66     3.79     3.92     
 4.06     4.22     4.39     4.58     4.78     5.00     5.23     5.48     5.72     5.99     
 6.28     6.56     6.86     7.17     7.51     7.84     8.19     8.55     8.92     9.27     
 9.64     10.05    10.47    10.88    11.33    11.80    12.29    12.79    13.30    13.86    
 14.51    15.21    15.97    16.80    17.71    18.69    19.79    21.03    22.36    23.83    
 25.42    27.25    29.26    31.48    34.00    36.87    40.20    43.98    48.30    53.19    
 58.63    65.07    72.20    79.98    88.44    97.60    107.69   118.48   129.89   142.17   
 154.87   167.81   180.77   194.36   207.87   221.02   234.85   248.69   259.84   270.58   
 280.48   289.21   296.69   302.93   307.94   311.29   313.10   313.47   312.48   309.82   
 305.85   300.52   294.18   286.81   278.46   269.53   259.99   249.53   238.55   226.99   
 216.38   
422379.09 421404.02 419096.28 414631.07 404862.56 389792.97 377911.63 362557.54 345928.09 328165.05 
 308855.72 290505.67 267685.75 243846.21 219974.07 192483.14 166125.33 138511.73 112623.47 91593.76 
 75588.93 63161.26 53373.88 45137.58 39587.85 35006.85 31090.40 27216.33 24464.22 21715.73 
 19331.59 16924.55 14540.68 12640.09 10903.98 9390.82  8095.39  7020.82  6155.31  5444.50  
 4853.05  4352.31  3950.69  3591.23  3254.33  2912.13  2611.61  2311.16  2019.29  1733.52  
 1445.64  1165.14  906.81   697.54   540.50   433.71   353.38   299.65   245.92   192.36   
 158.05   129.63   107.51   90.81    77.86    66.38    56.51    47.71    41.49    36.36    
 31.80    28.21    25.24    21.79    16.01    14.47    13.39    12.03    10.87    9.76     
 8.62     7.18     5.46     3.90     3.07     3.09     3.16     3.24     3.33     3.43     
 3.54     3.66     3.80     3.96     4.15     4.35     4.56     4.79     5.03     5.28     
 5.53     5.79     6.07     6.38     6.69     7.03     7.38     7.75     8.14     8.54     
 8.96     9.39     9.84     10.31    10.80    11.30    11.83    12.36    12.92    13.53    
 14.21    14.98    15.86    16.85    17.87    19.06    20.44    21.94    23.54    25.25    
 27.17    29.25    31.53    34.07    36.87    40.08    43.89    48.10    52.80    57.92    
 63.66    70.41    77.95    86.26    95.27    105.21   115.58   127.36   139.14   151.27   
 163.54   176.02   188.11   200.68   212.68   224.38   235.89   246.45   257.04   266.67   
 275.51   283.47   290.51   296.59   301.84   305.80   308.55   309.77   309.80   308.43   
 305.93   302.20   297.63   291.58   284.78   276.98   268.60   259.38   249.52   239.44   
 216.38   
422379.09 419796.25 416496.14 412085.33 403106.61 388718.94 376850.51 363045.17 347658.19 330343.65 
 312675.48 294889.55 273503.35 249032.02 224560.67 200063.13 173408.03 148085.45 124925.53 105838.40 
 90141.14 76874.73 66384.23 57629.17 50714.02 44849.32 40135.67 36149.71 32819.84 29734.09 
 26788.00 24104.55 21424.03 19019.67 16738.17 14832.29 13156.86 11785.81 10662.11 9728.50  
 8970.96  8346.99  7832.07  7348.93  6903.87  6492.07  6144.40  5818.36  5509.40  5201.89  
 4883.74  4570.08  4235.60  3916.59  3629.23  3376.11  3131.61  2912.30  2709.22  2506.14  
 2303.35  2125.26  1957.03  1802.82  1650.78  1511.08  1378.05  1243.56  1117.84  1003.30  
 892.02   792.27   700.27   613.75   532.56   457.37   389.79   329.18   280.80   232.43   
 184.17   146.15   114.22   87.09    56.12    23.62    5.19     3.39     2.88     2.63     
 2.37     2.30     2.25     2.17     2.10     2.04     1.79     1.66     1.65     1.64     
 1.61     1.61     1.64     1.71     1.79     1.85     1.89     1.93     1.99     2.04     
 2.05     2.13     2.23     2.32     2.46     2.62     2.81     2.98     3.07     3.16     
 3.26     3.37     3.50     3.67     3.86     4.09     4.36     4.65     4.97     5.34     
 5.75     6.26     6.79     7.33     7.93     8.63     9.41     10.30    11.36    12.50    
 13.77    15.24    16.94    18.78    20.79    23.02    25.44    27.95    30.61    33.43    
 36.32    39.26    42.37    45.62    48.97    52.53    56.25    60.10    64.23    68.56    
 72.99    77.54    82.42    87.53    92.83    98.30    104.26   110.77   117.76   125.83   
 133.91   142.73   152.41   162.18   172.73   183.79   195.04   206.27   217.50   228.74   
 216.38   
422379.09 419293.53 415490.74 410304.47 401288.17 387279.56 374453.55 360421.41 344648.24 325753.06 
 305374.63 284235.96 261753.23 238708.35 214714.33 191145.93 168783.87 146566.28 125568.09 108853.43 
 92179.05 75504.66 65457.31 57629.58 51506.91 46589.76 42559.34 39021.42 35705.16 32473.52 
 29623.60 26698.73 23843.86 21272.58 18923.89 16930.93 15149.33 13546.42 12302.38 11506.19 
 10714.46 9922.74  9412.16  8936.45  8543.89  8196.29  7879.76  7573.05  7293.94  7003.87  
 6741.96  6494.66  6249.90  5983.65  5716.02  5434.03  5155.10  4877.79  4604.49  4344.37  
 4105.89  3886.13  3681.03  3490.01  3305.09  3126.20  2948.96  2778.90  2616.08  2454.12  
 2305.72  2166.60  2027.93  1894.46  1768.60  1651.57  1545.37  1441.67  1340.77  1245.08  
 1162.64  1080.31  997.98   923.79   854.09   787.38   725.76   669.94   618.97   573.71   
 536.04   496.73   459.37   424.31   392.22   361.79   332.58   305.94   282.20   260.47   
 239.39   220.42   201.98   184.84   168.14   152.21   137.23   123.85   110.50   97.14    
 85.64    75.65    67.07    58.21    49.91    42.27    35.36    29.66    25.22    14.67    
 5.26     3.87     3.75     3.76     3.92     4.08     4.27     4.52     4.78     5.13     
 5.87     6.61     7.38     8.15     9.43     10.81    10.64    10.53    11.03    12.06    
 12.97    14.12    15.49    17.53    19.60    21.26    23.15    25.36    27.64    30.14    
 32.79    35.55    37.57    39.85    42.94    45.96    49.14    52.40    55.64    59.05    
 62.58    66.27    70.09    74.29    78.66    83.64    89.10    94.95    101.79   109.24   
 116.10   125.23   135.62   146.95   158.75   171.74   185.00   198.59   211.97   225.59   
 216.38   
422379.09 419069.71 414367.86 407988.63 399057.08 386588.92 370311.93 353497.43 334462.20 311609.36 
 285505.93 260218.27 234930.63 209686.14 188198.94 168189.20 147849.62 127779.61 108317.41 92317.47 
 79472.29 69572.10 61685.57 55687.68 50919.25 46678.51 42972.21 39389.90 36330.96 33149.25 
 30168.56 27296.29 24681.71 22070.64 19782.30 17662.02 15780.57 14170.31 12812.47 11764.16 
 10954.20 10373.05 9927.03  9539.29  9207.86  8896.93  8606.63  8346.86  8114.59  7890.47  
 7682.04  7458.09  7230.83  6993.54  6760.69  6518.60  6268.84  6007.91  5744.52  5474.44  
 5209.83  4937.40  4675.15  4434.25  4216.11  3993.01  3771.56  3555.00  3348.83  3147.91  
 2953.92  2775.30  2596.69  2418.36  2263.43  2109.54  1962.05  1820.16  1693.27  1574.88  
 1463.01  1360.08  1267.18  1183.71  1109.23  1038.46  974.14   913.47   858.17   812.25   
 773.97   730.07   689.12   651.32   616.03   583.18   553.69   526.11   501.31   478.30   
 456.98   437.26   419.01   402.27   386.40   371.48   357.29   343.63   331.66   320.73   
 309.53   298.54   287.76   277.11   266.56   256.29   245.44   234.59   223.75   213.49   
 201.66   190.42   179.24   168.38   157.09   145.81   133.98   123.06   111.31   98.22    
 84.31    67.86    44.48    28.19    19.88    18.11    17.08    9.43     7.03     7.69     
 8.53     9.51     10.66    11.91    13.32    14.99    16.84    18.88    21.43    24.49    
 27.56    30.75    35.28    49.94    43.58    40.29    43.41    46.56    49.86    53.18    
 56.56    59.96    63.43    67.23    71.11    75.41    80.04    85.03    90.97    96.88    
 104.31   112.95   123.78   134.63   146.85   159.84   174.05   188.77   203.88   219.43   
 216.38   
422379.09 418108.73 411408.35 402400.25 390493.44 375369.35 355219.65 330491.49 300244.18 267463.16 
 235093.09 206945.03 182618.79 161203.48 142296.98 125462.02 112937.24 100444.14 87951.04 78730.15 
 70784.21 64468.23 58812.71 53741.96 48904.68 44431.94 39973.89 35685.39 31520.24 27387.78 
 23594.11 20346.95 17663.97 15698.94 14394.14 13532.32 12863.31 12262.83 11773.03 11284.06 
 10795.08 10383.10 9991.41  9623.45  9304.82  9022.56  8748.20  8506.66  8276.98  8027.41  
 7773.97  7527.40  7293.66  7072.81  6854.08  6624.99  6397.40  6169.42  5951.03  5710.74  
 5469.48  5230.46  4990.81  4759.93  4529.13  4288.35  4055.07  3824.25  3589.86  3365.43  
 3141.08  2931.91  2737.39  2546.43  2366.28  2200.20  2039.04  1873.14  1733.14  1602.56  
 1488.04  1381.64  1280.50  1184.06  1108.57  1033.30  966.00   903.60   846.74   807.13   
 770.29   728.39   690.12   656.00   626.43   599.21   575.54   554.44   535.73   518.55   
 502.83   488.55   475.02   462.61   451.15   439.53   427.94   417.35   407.15   397.05   
 387.12   377.36   368.25   359.31   350.16   341.53   332.99   325.32   317.48   309.46   
 302.21   294.53   286.86   279.83   271.99   263.66   255.12   246.15   237.41   228.39   
 219.16   207.99   196.97   185.53   174.51   163.15   152.00   140.39   128.38   115.42   
 102.47   87.47    58.17    22.07    15.18    14.44    14.16    14.36    16.43    18.80    
 21.35    24.06    27.02    30.19    33.47    36.83    40.60    44.74    48.56    53.29    
 72.00    60.12    62.54    67.02    71.68    76.62    81.56    86.77    92.24    98.09    
