IESNA:LM-63-2002
[TEST] 1
[TESTLAB] AOK
[TESTDATE] 2022-05-12
[ISSUEDATE] 2022-05-12 08:38:39
[NEARFIELD] 
[LAMPPOSITION] 0,0
[OTHER] EVERFINE GO-2000A_V1 SYSTEM
[MANUFAC] AOK
[LUMCAT] A
[LUMINAIRE] AOK-600WiSF-HVY-S5-00-5070-3585D-P
[LAMPCAT] B
[LAMP] 5050
[BALLAST] E
[BALLASTCAT] F
[OTHER] 
[OTHER] Gamma(deg)    Fz(lm)      Ft(lm)     %Lum    %Lamp
[OTHER]   0- 10      6541.58     6541.58     7.97     7.97
[OTHER]  10- 20     14003.21    20544.79    25.03    25.03
[OTHER]  20- 30     16250.57    36795.36    44.83    44.83
[OTHER]  30- 40     15514.67    52310.03    63.73    63.73
[OTHER]  40- 50     12673.14    64983.17    79.17    79.17
[OTHER]  50- 60      8990.13    73973.31    90.12    90.12
[OTHER]  60- 70      4876.73    78850.03    96.06    96.06
[OTHER]  70- 80      1905.97    80756.00    98.38    98.38
[OTHER]  80- 90       563.43    81319.43    99.07    99.07
[OTHER]  90-100       214.39    81533.82    99.33    99.33
[OTHER] 100-110       138.20    81672.02    99.50    99.50
[OTHER] 110-120       113.04    81785.06    99.63    99.63
[OTHER] 120-130        93.14    81878.20    99.75    99.75
[OTHER] 130-140        73.62    81951.82    99.84    99.84
[OTHER] 140-150        58.81    82010.63    99.91    99.91
[OTHER] 150-160        42.61    82053.24    99.96    99.96
[OTHER] 160-170        23.43    82076.67    99.99    99.99
[OTHER] 170-180         8.27    82084.94   100.00   100.00
[OTHER] 
TILT=NONE
1 82085 1 181 25 1 2 0.150 0.200 0.000
1.000 1 607.635
0.0    1.0    2.0    3.0    4.0    5.0    6.0    7.0    8.0    9.0    
 10.0   11.0   12.0   13.0   14.0   15.0   16.0   17.0   18.0   19.0   
 20.0   21.0   22.0   23.0   24.0   25.0   26.0   27.0   28.0   29.0   
 30.0   31.0   32.0   33.0   34.0   35.0   36.0   37.0   38.0   39.0   
 40.0   41.0   42.0   43.0   44.0   45.0   46.0   47.0   48.0   49.0   
 50.0   51.0   52.0   53.0   54.0   55.0   56.0   57.0   58.0   59.0   
 60.0   61.0   62.0   63.0   64.0   65.0   66.0   67.0   68.0   69.0   
 70.0   71.0   72.0   73.0   74.0   75.0   76.0   77.0   78.0   79.0   
 80.0   81.0   82.0   83.0   84.0   85.0   86.0   87.0   88.0   89.0   
 90.0   91.0   92.0   93.0   94.0   95.0   96.0   97.0   98.0   99.0   
 100.0  101.0  102.0  103.0  104.0  105.0  106.0  107.0  108.0  109.0  
 110.0  111.0  112.0  113.0  114.0  115.0  116.0  117.0  118.0  119.0  
 120.0  121.0  122.0  123.0  124.0  125.0  126.0  127.0  128.0  129.0  
 130.0  131.0  132.0  133.0  134.0  135.0  136.0  137.0  138.0  139.0  
 140.0  141.0  142.0  143.0  144.0  145.0  146.0  147.0  148.0  149.0  
 150.0  151.0  152.0  153.0  154.0  155.0  156.0  157.0  158.0  159.0  
 160.0  161.0  162.0  163.0  164.0  165.0  166.0  167.0  168.0  169.0  
 170.0  171.0  172.0  173.0  174.0  175.0  176.0  177.0  178.0  179.0  
 180.0  
0.0    15.0   30.0   45.0   60.0   75.0   90.0   105.0  120.0  135.0  
 150.0  165.0  180.0  195.0  210.0  225.0  240.0  255.0  270.0  285.0  
 300.0  315.0  330.0  345.0  360.0  
71472.50 68167.90 65550.59 64061.14 62349.10 54598.05 48168.35 40800.38 32420.90 26782.93 
 18661.55 13146.77 7728.63  2311.23  1526.74  791.69   56.64    29.93    18.16    15.08    
 13.21    11.90    10.44    9.52     8.77     7.92     7.24     6.70     6.20     5.78     
 5.50     5.25     5.09     4.92     4.77     4.64     4.54     4.55     4.67     4.74     
 4.76     4.80     4.83     4.81     4.70     4.59     4.49     4.38     4.32     4.27     
 4.14     4.07     3.97     3.93     3.90     3.83     3.78     3.74     3.71     3.66     
 3.61     3.58     3.56     3.53     3.47     3.44     3.43     3.42     3.40     3.37     
 3.35     3.31     3.29     3.28     3.29     3.30     3.30     3.31     3.32     3.33     
 3.36     3.42     3.48     3.58     3.65     3.75     3.87     4.01     4.17     4.35     
 4.55     4.78     5.05     5.33     5.64     5.99     6.39     6.82     7.28     7.75     
 8.27     8.87     9.50     10.17    10.88    11.67    12.50    13.35    14.22    15.17    
 16.15    17.14    18.15    19.22    20.35    21.48    22.61    23.74    24.95    26.18    
 27.47    28.79    30.17    31.64    33.20    34.81    36.55    38.40    40.31    42.30    
 44.32    46.38    48.56    50.83    53.14    55.48    57.93    60.36    62.87    65.42    
 67.99    70.62    73.42    76.34    79.39    82.63    85.84    89.23    92.63    96.10    
 99.67    103.36   107.05   110.65   114.25   117.70   120.83   123.66   126.29   128.60   
 130.57   132.21   133.60   134.55   134.98   134.81   134.04   132.62   130.58   127.91   
 124.68   120.94   117.03   112.71   108.35   103.78   99.27    94.75    90.19    85.49    
 79.95    
71472.50 68355.85 65470.51 63778.08 62717.20 57488.27 50368.13 43656.54 37211.81 28851.36 
 22640.19 16434.99 10969.66 7433.53  3897.39  392.87   309.58   226.29   143.24   84.06    
 44.05    27.13    18.89    13.98    11.70    10.26    9.25     8.48     8.01     7.63     
 7.31     6.99     6.82     6.66     6.32     5.87     5.80     5.77     5.70     5.54     
 5.41     5.33     5.21     5.06     4.87     4.93     4.98     4.97     4.93     4.88     
 4.80     4.73     4.60     4.52     4.40     4.31     4.23     4.14     4.05     3.99     
 3.89     3.78     3.67     3.58     3.53     3.46     3.38     3.29     3.23     3.20     
 3.15     3.09     3.01     2.95     2.93     2.92     2.92     2.93     2.94     2.96     
 2.98     3.02     3.06     3.11     3.19     3.30     3.44     3.59     3.77     3.98     
 4.22     4.48     4.76     5.08     5.42     5.78     6.17     6.61     7.11     7.60     
 8.13     8.71     9.35     10.03    10.79    11.55    12.36    13.22    14.14    15.10    
 16.09    17.11    18.17    19.29    20.40    21.55    22.73    23.92    25.13    26.38    
 27.73    29.18    30.68    32.19    33.78    35.41    37.18    39.01    40.91    42.84    
 44.83    46.86    48.94    51.03    53.13    55.28    57.52    59.74    61.98    64.31    
 66.79    69.32    71.93    74.76    77.66    80.66    83.67    86.81    90.00    93.36    
 96.85    100.38   103.87   107.45   110.84   114.05   117.03   119.64   122.05   124.12   
 125.89   127.42   128.68   129.58   129.95   129.82   129.08   127.72   125.83   123.39   
 120.51   117.33   113.98   110.48   106.94   103.38   99.72    96.97    92.70    87.98    
 79.95    
71472.50 68687.21 66002.07 64186.28 63083.12 61731.51 55323.60 49565.43 43212.01 37435.88 
 29319.74 25109.74 17748.37 13391.28 8703.70  4012.24  954.14   624.83   330.06   254.06   
 220.86   165.96   128.01   106.40   84.96    72.37    62.61    51.46    48.89    46.97    
 38.92    32.98    29.44    28.23    25.11    22.02    18.52    15.50    13.12    11.64    
 10.59    9.69     9.00     8.36     7.79     7.36     7.06     6.77     6.52     6.26     
 6.03     5.83     5.62     5.42     5.22     5.03     4.87     4.74     4.61     4.47     
 4.32     4.21     4.11     3.99     3.89     3.78     3.71     3.62     3.55     3.48     
 3.42     3.35     3.29     3.24     3.20     3.15     3.11     3.09     3.06     3.06     
 3.05     3.05     3.06     3.12     3.23     3.37     3.55     3.75     3.97     4.22     
 4.51     4.82     5.17     5.54     5.97     6.41     6.91     7.43     8.04     8.70     
 9.41     10.15    10.94    11.79    12.68    13.60    14.56    15.54    16.59    17.66    
 18.78    19.93    21.14    22.31    23.56    24.84    26.15    27.50    28.92    30.36    
 31.84    33.36    34.96    36.57    38.20    39.85    41.59    43.32    45.10    46.85    
 48.65    50.50    52.42    54.37    56.39    58.46    60.62    62.94    65.34    67.81    
 70.37    72.98    75.68    78.54    81.48    84.46    87.51    90.56    93.63    96.89    
 100.16   103.33   106.35   109.14   111.71   114.11   116.40   118.46   120.28   121.89   
 123.33   124.55   125.38   125.79   125.73   125.28   124.39   123.07   121.43   119.49   
 117.29   114.93   112.43   111.11   108.62   105.68   102.67   99.39    95.89    92.11    
 79.95    
71472.50 69174.41 66986.89 64991.50 63603.18 62696.30 62111.78 59095.18 52613.22 47828.79 
 42288.90 37681.60 31485.84 26561.88 21637.92 16728.76 13411.33 9140.53  6374.29  3638.13  
 919.95   542.59   425.59   312.06   252.75   193.69   162.27   130.99   107.12   89.43    
 75.06    65.88    55.95    47.83    41.74    36.75    32.89    29.52    26.64    24.21    
 22.01    20.01    17.76    15.33    13.63    12.84    12.40    11.95    11.47    10.86    
 10.24    9.57     8.81     8.01     7.46     7.12     6.96     6.85     6.70     6.51     
 6.30     6.08     5.86     5.64     5.41     5.21     5.02     4.84     4.67     4.51     
 4.35     4.20     4.04     3.90     3.77     3.65     3.55     3.44     3.36     3.29     
 3.25     3.25     3.26     3.30     3.40     3.56     3.79     4.05     4.37     4.72     
 5.12     5.56     6.04     6.56     7.12     7.72     8.36     9.05     9.77     10.53    
 11.31    12.13    13.00    13.96    14.94    15.91    16.92    17.98    19.11    20.26    
 21.42    22.64    23.90    25.23    26.56    27.96    29.40    30.86    32.31    33.83    
 35.40    37.04    38.73    40.41    42.10    43.88    45.71    47.63    49.58    51.57    
 53.60    55.69    57.85    60.04    62.25    64.55    66.94    69.35    71.72    74.23    
 76.86    79.47    82.10    84.78    87.45    90.14    92.78    95.38    97.85    100.25   
 102.60   104.80   106.86   108.84   110.69   112.41   114.04   115.44   116.68   117.66   
 118.45   118.97   119.25   119.29   119.06   118.53   117.80   116.87   115.78   114.56   
 113.86   112.93   111.82   110.23   108.53   106.49   102.94   101.99   99.62    96.85    
 79.95    
71472.50 69806.07 68286.37 66860.96 65436.51 64262.53 62956.87 61664.93 60673.92 59887.11 
 57050.48 52121.74 47860.23 44791.58 40616.07 36706.71 33411.85 28626.84 24300.74 22124.20 
 18678.15 14769.13 12421.31 10044.41 7666.98  5289.55  2529.72  1118.41  798.50   492.37   
 365.32   266.15   194.49   152.83   126.63   106.44   86.32    75.20    69.12    58.23    
 50.64    44.71    40.13    35.17    32.15    29.43    26.96    24.87    22.39    20.27    
 18.46    16.91    15.11    13.04    11.64    11.03    10.54    10.16    9.76     9.39     
 8.95     8.59     8.24     7.92     7.63     7.36     7.08     6.82     6.58     6.37     
 6.15     5.95     5.76     5.55     5.37     5.18     4.99     4.79     4.61     4.46     
 4.33     4.21     4.14     4.12     4.12     4.29     4.58     4.93     5.32     5.72     
 6.17     6.66     7.19     7.78     8.40     9.09     9.82     10.60    11.41    12.28    
 13.20    14.16    15.16    16.21    17.34    18.57    19.82    21.10    22.39    23.72    
 25.14    26.63    28.17    29.75    31.34    32.95    34.65    36.46    38.28    40.12    
 41.99    43.93    45.96    48.02    50.07    52.14    54.32    56.57    58.80    61.05    
 63.30    65.53    67.79    70.09    72.41    74.70    76.98    79.27    81.55    83.82    
 86.03    88.29    90.48    92.63    94.70    96.69    98.64    100.52   102.26   103.91   
 105.41   106.80   108.08   109.25   110.34   111.27   112.05   112.70   113.22   113.62   
 113.90   114.04   114.10   114.09   113.98   113.82   113.56   113.24   112.98   112.34   
 111.72   111.08   110.62   110.11   109.21   107.96   106.92   105.87   104.47   102.98   
 79.95    
71472.50 70581.53 69814.36 69131.56 68424.98 67638.99 66580.92 65201.46 63944.39 62679.58 
 61354.02 60132.70 58954.26 57848.05 57080.28 55897.53 54730.22 53569.73 52315.51 50515.55 
 47995.13 45035.83 42064.54 39513.96 37581.18 35044.30 32454.58 29558.44 27175.06 24577.26 
 21979.46 19381.07 16710.14 14774.35 13100.07 11126.52 9355.38  7817.98  6443.05  5319.27  
 4228.33  3387.10  2628.03  1870.33  1289.29  881.01   620.29   447.92   328.31   271.55   
 214.79   158.31   130.74   99.50    81.91    71.37    61.47    49.52    42.80    37.82    
 32.98    29.56    26.78    24.69    22.32    20.16    17.96    15.79    13.88    13.00    
 12.51    11.89    10.95    10.10    9.39     8.89     8.34     7.74     7.28     6.80     
 6.22     5.79     5.34     4.93     4.53     4.22     4.25     4.52     4.85     5.22     
 5.61     6.06     6.54     7.07     7.64     8.24     8.87     9.57     10.33    11.15    
 12.01    12.90    13.86    14.89    15.97    17.11    18.27    19.50    20.82    22.17    
 23.61    25.08    26.62    28.19    29.82    31.54    33.25    34.98    36.78    38.67    
 40.62    42.64    44.72    46.74    48.79    50.86    53.03    55.22    57.41    59.62    
 61.82    64.03    66.24    68.43    70.58    72.73    74.92    77.05    79.10    81.17    
 83.27    85.27    87.21    89.10    90.88    92.59    94.28    95.83    97.37    98.96    
 100.37   101.73   102.94   104.05   105.20   106.36   107.35   108.22   109.06   109.82   
 110.54   111.19   111.77   112.27   112.73   113.16   113.53   115.12   115.38   115.55   
 115.63   115.56   115.38   115.11   114.43   113.69   113.05   112.26   111.27   110.27   
 79.95    
71472.50 71488.98 71542.63 71718.95 71854.86 71931.19 71677.70 71076.40 70578.99 70024.94 
 69505.15 68846.04 68167.29 67507.35 66757.97 66170.15 65480.04 64863.80 64124.12 63350.46 
 62539.64 61798.95 60921.54 59900.75 58852.37 57822.92 56715.39 55716.54 54513.64 53179.02 
 51784.92 50410.76 49023.11 47488.76 45988.86 44368.20 42613.85 40974.08 39286.58 37590.10 
 35810.65 34060.84 32417.29 30741.22 28998.26 27320.77 25812.51 24304.25 22796.42 21327.57 
 20046.01 18679.72 17295.48 15953.94 14656.83 13372.78 12365.86 11348.99 10308.07 9277.95  
 8276.48  7416.25  6653.45  5960.87  5349.35  4755.93  4201.10  3675.98  3214.60  2796.19  
 2378.70  2039.93  1731.96  1462.77  1209.01  989.89   789.25   619.84   486.68   379.44   
 305.18   230.92   157.06   117.42   87.15    59.03    26.48    11.01    6.70     6.10     
 5.64     5.36     4.68     4.15     3.88     3.59     2.61     2.56     2.62     2.70     
 2.80     2.91     3.03     3.17     3.31     3.47     3.64     3.83     4.04     4.26     
 4.49     4.74     5.01     5.31     5.61     5.93     6.28     6.63     7.01     7.42     
 7.83     8.25     8.70     9.17     9.68     10.19    10.73    11.27    11.81    12.39    
 13.00    13.60    14.22    14.89    15.55    16.24    16.96    17.73    18.49    19.30    
 20.14    20.99    21.86    22.78    23.72    24.75    25.80    26.89    28.01    29.19    
 30.46    31.78    33.14    34.59    36.15    37.75    39.52    41.48    43.53    45.71    
 47.98    50.35    52.80    55.36    57.98    60.62    63.24    67.37    70.27    73.04    
 75.76    78.47    81.11    83.61    86.03    88.27    90.38    92.14    93.66    95.01    
 79.95    
71472.50 72347.41 73285.94 74304.99 75336.65 76357.63 77085.96 77516.01 77915.27 78306.29 
 78665.27 79111.87 79543.25 79826.57 79916.75 79813.42 79589.22 79443.35 79230.39 78845.10 
 78182.64 77505.65 76580.84 75386.10 74029.20 72690.98 71296.93 69858.36 68363.68 66764.66 
 65244.48 63757.00 62042.15 60241.33 58447.78 56786.22 55057.76 53264.77 51508.08 49722.95 
 48065.24 46304.99 44555.73 42882.48 41353.72 39678.39 37985.79 36297.06 34672.35 33192.15 
 31685.13 30058.07 28609.47 27206.51 25803.97 24325.52 22930.31 21631.76 20477.92 19285.27 
 18016.30 16837.99 15764.89 14760.69 13697.26 12697.16 11805.54 10914.89 10024.24 9103.96  
 8240.60  7478.65  6740.58  6045.17  5388.23  4852.26  4344.56  3859.79  3404.79  2958.96  
 2611.27  2286.68  1999.57  1732.54  1525.61  1348.01  1200.57  1053.41  906.26   805.56   
 719.74   644.35   574.23   514.46   465.25   422.95   384.47   350.99   322.92   297.77   
 274.97   256.50   239.81   225.15   210.72   198.30   187.89   178.86   170.62   163.09   
 156.40   149.80   143.64   137.13   130.71   124.21   117.72   112.21   107.14   102.63   
 98.42    93.94    89.71    85.25    80.85    75.69    70.37    63.60    54.41    45.24    
 36.31    29.35    24.37    20.35    15.56    11.91    10.86    11.27    11.88    12.54    
 13.20    13.86    14.52    15.17    15.83    16.50    17.15    17.81    18.48    19.19    
 19.90    20.64    21.41    22.24    23.13    24.10    25.17    26.37    27.70    29.23    
 30.89    32.82    34.97    37.36    39.92    42.62    45.40    48.32    51.38    56.14    
 59.46    62.83    66.21    69.52    72.82    76.10    79.24    82.20    84.95    87.64    
 79.95    
71472.50 73159.87 74877.11 76753.46 78558.23 80394.75 82211.21 84016.86 85289.78 86362.17 
 87072.34 87224.10 86458.58 85257.88 84134.16 83093.06 81939.01 80700.57 79426.22 78153.52 
 76704.87 75227.79 73715.66 72291.13 70825.57 69272.82 67787.72 66272.71 64600.99 62861.54 
 61138.31 59369.88 57556.68 55676.69 53912.23 52098.47 50174.96 48443.92 46756.62 45050.28 
 43419.25 41742.47 40226.45 38818.97 37452.52 36178.88 34974.72 33898.46 32812.03 31541.24 
 30235.13 28981.61 27780.18 26590.00 25402.99 24215.99 23028.27 21777.66 20627.84 19565.51 
 18463.14 17436.10 16537.66 15653.16 14781.68 13921.78 13037.61 12121.96 11185.86 10272.53 
 9434.20  8629.19  7798.54  7024.43  6235.50  5459.54  4639.38  4027.57  3503.30  3044.31  
 2585.32  2128.01  1815.75  1582.15  1363.45  1198.59  1056.89  942.39   844.36   759.32   
 694.39   632.03   569.14   516.62   473.43   440.72   412.79   390.05   370.60   353.36   
 338.23   324.47   312.20   300.70   291.53   283.36   275.33   267.58   261.23   255.64   
 250.47   244.91   239.35   233.80   229.28   224.79   220.29   216.37   212.51   208.25   
 204.37   200.74   196.99   193.14   189.83   186.43   182.58   179.02   175.31   171.53   
 166.54   160.28   153.19   146.10   139.65   132.71   125.63   118.99   112.52   105.65   
 97.69    89.10    81.35    75.20    70.03    64.80    60.55    46.00    25.35    17.03    
 13.71    13.34    14.08    14.87    15.68    16.50    17.38    18.28    19.27    20.38    
 21.58    22.91    24.46    26.22    28.13    30.28    32.60    35.24    38.10    41.28    
 44.65    49.15    53.49    57.44    61.56    65.68    69.77    73.78    77.89    81.95    
 79.95    
71472.50 73865.94 76363.52 78813.88 81524.25 84209.23 86405.70 88177.61 88629.87 87789.90 
 86818.24 85809.50 84600.31 83573.60 82308.12 81012.71 79484.87 78095.03 76670.59 74614.04 
 72231.57 69858.16 67404.85 65078.90 62850.12 60822.35 59008.46 57241.08 55669.05 54454.72 
 53439.77 52474.67 51498.01 50441.23 49467.78 48495.06 47470.27 46336.93 44970.13 43589.85 
 42161.51 40852.63 39508.90 38124.84 36648.40 35159.13 33569.70 32107.55 30754.57 29454.52 
 28166.38 26906.80 25855.39 24825.97 23764.74 22667.20 21525.33 20391.09 19276.93 18190.97 
 17029.12 15937.78 14839.99 13786.12 12604.71 11553.50 10503.49 9453.48  8358.09  7377.18  
 6509.66  5837.93  5255.40  4690.57  4116.59  3643.04  3114.49  2727.77  2387.76  2102.51  
 1832.75  1596.39  1400.49  1239.86  1106.93  974.28   863.50   772.35   694.56   637.16   
 586.44   536.05   488.18   447.95   416.08   388.41   368.47   353.01   340.21   329.14   
 318.95   310.04   302.41   296.84   290.24   284.86   280.07   274.66   269.85   265.70   
 261.17   257.07   253.23   248.96   244.69   240.72   237.11   233.24   229.37   225.93   
 222.66   218.88   215.13   210.30   204.71   199.90   194.75   189.90   185.07   180.70   
 176.04   172.28   169.46   166.55   163.34   160.25   157.82   155.36   152.89   150.12   
 147.61   144.62   141.71   138.93   136.77   132.38   125.68   118.96   114.24   108.08   
 102.39   90.71    83.82    81.82    78.93    68.02    38.75    24.60    18.43    16.86    
 16.07    17.09    18.49    20.04    21.70    23.44    25.29    27.36    29.76    32.48    
 35.50    38.83    42.49    46.26    50.32    56.12    60.74    65.54    70.48    75.63    
 79.95    
71472.50 74405.95 77345.07 80431.88 83822.88 86568.92 88535.61 88587.07 87606.80 86646.90 
