IESNA:LM-63-2002
[TEST] 1
[TESTLAB] AOK
[TESTDATE] 2022-05-23
[ISSUEDATE] 2022-05-23 16:02:29
[NEARFIELD] 
[LAMPPOSITION] 0,0
[OTHER] EVERFINE GO-2000A_V1 SYSTEM
[MANUFAC] AOK
[LUMCAT] A
[LUMINAIRE] AOK-400WiSF-NV-S35-00-5070-15D-P
[LAMPCAT] B
[LAMP] 5050
[BALLAST] E
[BALLASTCAT] F
[OTHER] 
[OTHER] Gamma(deg)    Fz(lm)      Ft(lm)     %Lum    %Lamp
[OTHER]   0- 10     23265.04    23265.04    46.56    46.56
[OTHER]  10- 20     12062.08    35327.11    70.70    70.70
[OTHER]  20- 30      4549.31    39876.42    79.80    79.80
[OTHER]  30- 40      2898.06    42774.48    85.60    85.60
[OTHER]  40- 50      2326.51    45100.98    90.26    90.26
[OTHER]  50- 60      1950.14    47051.12    94.16    94.16
[OTHER]  60- 70      1400.41    48451.53    96.96    96.96
[OTHER]  70- 80       703.08    49154.61    98.37    98.37
[OTHER]  80- 90       272.91    49427.52    98.91    98.91
[OTHER]  90-100       140.91    49568.42    99.20    99.20
[OTHER] 100-110       100.02    49668.44    99.40    99.40
[OTHER] 110-120        81.99    49750.44    99.56    99.56
[OTHER] 120-130        62.37    49812.81    99.69    99.69
[OTHER] 130-140        43.83    49856.64    99.77    99.77
[OTHER] 140-150        31.86    49888.50    99.84    99.84
[OTHER] 150-160        35.91    49924.41    99.91    99.91
[OTHER] 160-170        33.98    49958.39    99.98    99.98
[OTHER] 170-180        11.63    49970.02   100.00   100.00
[OTHER] 
TILT=NONE
1 49970 1 181 25 1 2 0.150 0.200 0.000
1.000 1 400.799
0.0    1.0    2.0    3.0    4.0    5.0    6.0    7.0    8.0    9.0    
 10.0   11.0   12.0   13.0   14.0   15.0   16.0   17.0   18.0   19.0   
 20.0   21.0   22.0   23.0   24.0   25.0   26.0   27.0   28.0   29.0   
 30.0   31.0   32.0   33.0   34.0   35.0   36.0   37.0   38.0   39.0   
 40.0   41.0   42.0   43.0   44.0   45.0   46.0   47.0   48.0   49.0   
 50.0   51.0   52.0   53.0   54.0   55.0   56.0   57.0   58.0   59.0   
 60.0   61.0   62.0   63.0   64.0   65.0   66.0   67.0   68.0   69.0   
 70.0   71.0   72.0   73.0   74.0   75.0   76.0   77.0   78.0   79.0   
 80.0   81.0   82.0   83.0   84.0   85.0   86.0   87.0   88.0   89.0   
 90.0   91.0   92.0   93.0   94.0   95.0   96.0   97.0   98.0   99.0   
 100.0  101.0  102.0  103.0  104.0  105.0  106.0  107.0  108.0  109.0  
 110.0  111.0  112.0  113.0  114.0  115.0  116.0  117.0  118.0  119.0  
 120.0  121.0  122.0  123.0  124.0  125.0  126.0  127.0  128.0  129.0  
 130.0  131.0  132.0  133.0  134.0  135.0  136.0  137.0  138.0  139.0  
 140.0  141.0  142.0  143.0  144.0  145.0  146.0  147.0  148.0  149.0  
 150.0  151.0  152.0  153.0  154.0  155.0  156.0  157.0  158.0  159.0  
 160.0  161.0  162.0  163.0  164.0  165.0  166.0  167.0  168.0  169.0  
 170.0  171.0  172.0  173.0  174.0  175.0  176.0  177.0  178.0  179.0  
 180.0  
0.0    15.0   30.0   45.0   60.0   75.0   90.0   105.0  120.0  135.0  
 150.0  165.0  180.0  195.0  210.0  225.0  240.0  255.0  270.0  285.0  
 300.0  315.0  330.0  345.0  360.0  
365584.06 365402.33 364215.03 361831.47 357063.77 307770.96 260180.54 216364.72 163718.00 116606.75 
 82691.87 48930.21 26208.35 6515.14  508.58   313.73   177.94   42.14    29.36    22.39    
 19.19    16.17    13.90    12.25    10.96    9.79     8.73     7.87     7.26     7.05     
 7.36     7.65     7.74     7.37     6.94     6.56     5.88     5.47     5.24     5.14     
 5.17     4.89     4.61     4.21     3.91     3.52     3.37     3.29     3.13     2.96     
 2.72     2.59     2.54     2.54     2.49     2.49     2.47     2.47     2.42     2.38     
 2.37     2.36     2.36     2.36     2.35     2.35     2.35     2.34     2.34     2.33     
 2.34     2.34     2.34     2.34     2.35     2.35     2.36     2.37     2.38     2.40     
 2.41     2.42     2.43     2.44     2.56     2.74     2.88     3.00     3.08     3.14     
 3.20     3.29     3.41     3.49     3.54     3.59     3.68     3.76     3.90     4.06     
 4.25     4.45     4.69     4.95     5.23     5.52     5.83     6.15     6.47     6.77     
 7.06     7.34     7.60     7.86     8.13     8.41     8.71     9.04     9.40     9.78     
 10.19    10.62    11.08    11.55    12.03    12.53    13.10    13.71    14.35    15.01    
 15.70    16.41    17.18    17.98    18.83    19.74    20.71    21.78    22.98    24.30    
 25.76    27.41    29.31    31.49    33.94    36.90    40.30    44.17    48.67    54.28    
 61.19    69.26    78.49    88.64    99.75    112.07   124.64   137.04   149.76   162.40   
 174.42   185.64   196.46   205.11   211.62   215.74   217.33   216.64   213.91   209.33   
 203.54   196.76   189.37   181.53   173.35   164.86   156.34   147.38   138.19   128.09   
 116.04   
365584.06 365451.24 363806.42 361466.82 356531.72 323678.92 274624.66 225570.35 176452.03 118994.96 
 86926.28 51267.22 38648.45 26029.67 13410.90 906.48   776.40   555.37   334.34   114.75   
 88.36    85.24    75.37    50.61    63.74    60.44    34.32    20.49    14.59    11.38    
 9.14     7.86     7.24     6.72     6.00     4.76     4.34     4.25     4.15     4.05     
 3.88     3.89     4.32     4.34     4.33     4.31     4.16     4.09     3.94     3.82     
 3.66     3.57     3.45     3.36     3.31     3.27     3.20     3.14     3.07     3.00     
 2.90     2.78     2.68     2.61     2.54     2.47     2.41     2.34     2.27     2.21     
 2.15     2.10     2.07     2.03     2.00     1.97     1.97     1.96     1.96     1.95     
 1.95     1.96     2.00     2.04     2.09     2.15     2.23     2.32     2.40     2.50     
 2.59     2.70     2.81     2.92     3.04     3.16     3.30     3.45     3.61     3.79     
 3.99     4.20     4.43     4.67     4.93     5.18     5.47     5.75     6.04     6.33     
 6.64     6.95     7.27     7.56     7.87     8.18     8.53     8.89     9.28     9.66     
 10.08    10.53    11.02    11.51    12.02    12.54    13.10    13.70    14.31    14.96    
 15.65    16.36    17.11    17.88    18.72    19.63    20.66    21.76    22.93    24.24    
 25.75    27.44    29.30    31.48    33.93    36.83    40.09    43.96    48.53    54.08    
 60.74    68.66    77.74    88.04    99.40    111.32   123.84   136.30   149.05   161.66   
 173.76   185.39   195.87   204.71   211.29   215.44   217.01   216.39   213.70   209.31   
 203.78   197.23   189.97   182.27   174.24   166.19   157.72   148.92   138.51   126.79   
 116.04   
365584.06 365080.30 362700.48 359627.55 353538.68 340879.62 285697.04 230885.15 178811.42 128786.84 
 94411.71 60218.93 36266.15 26685.39 15654.69 8465.30  1316.14  957.87   686.08   514.75   
 362.55   193.56   155.45   118.83   82.22    71.71    59.78    48.77    42.26    36.43    
 31.91    26.97    22.80    20.42    18.66    16.79    14.80    12.68    10.41    9.75     
 9.54     9.54     9.02     8.49     8.13     7.95     7.17     6.62     6.33     5.95     
 5.48     5.11     4.63     4.03     3.66     3.51     3.38     3.24     3.05     2.87     
 2.72     2.57     2.45     2.36     2.29     2.22     2.16     2.10     2.05     2.01     
 1.98     1.95     1.93     1.91     1.90     1.89     1.87     1.86     1.85     1.84     
 1.83     1.83     1.86     1.92     1.98     2.05     2.14     2.22     2.32     2.42     
 2.54     2.67     2.80     2.94     3.10     3.27     3.43     3.60     3.77     3.96     
 4.14     4.33     4.53     4.74     4.96     5.18     5.40     5.65     5.90     6.17     
 6.46     6.75     7.05     7.36     7.68     8.02     8.36     8.71     9.09     9.46     
 9.85     10.27    10.70    11.15    11.61    12.08    12.57    13.10    13.66    14.28    
 14.92    15.61    16.35    17.18    18.06    19.04    20.10    21.27    22.58    24.03    
 25.62    27.40    29.47    31.77    34.33    37.32    40.84    44.98    49.84    55.73    
 62.76    70.78    79.91    90.30    101.46   113.29   125.78   138.52   151.28   164.11   
 176.31   187.53   197.28   205.11   210.80   214.24   215.45   214.46   211.77   207.50   
 201.92   195.49   188.34   180.78   172.77   164.63   155.68   145.80   135.14   123.76   
 116.04   
365584.06 364966.21 362271.37 357961.64 350431.44 333370.95 306065.09 248437.97 190888.98 143801.12 
 102513.68 75110.61 49420.53 35885.14 26333.73 16841.48 13735.07 8859.85  6200.01  3540.17  
 899.10   698.69   453.93   359.02   264.11   169.62   121.91   91.93    70.82    58.23    
 49.59    42.66    37.13    32.80    29.49    26.70    24.15    22.00    20.12    18.44    
 16.95    15.42    13.69    11.41    9.68     8.94     8.60     8.18     7.78     7.39     
 6.97     6.54     6.10     5.67     5.26     4.92     4.67     4.45     4.24     4.04     
 3.86     3.68     3.51     3.36     3.23     3.11     3.01     2.89     2.78     2.67     
 2.54     2.42     2.31     2.21     2.11     2.03     1.95     1.89     1.84     1.79     
 1.73     1.73     1.74     1.77     1.83     1.90     1.98     2.07     2.17     2.28     
 2.40     2.52     2.65     2.80     2.95     3.09     3.26     3.42     3.59     3.77     
 3.96     4.15     4.35     4.56     4.78     5.00     5.24     5.48     5.72     5.97     
 6.24     6.51     6.80     7.08     7.36     7.67     7.98     8.32     8.64     8.97     
 9.32     9.67     10.05    10.43    10.82    11.22    11.65    12.15    12.64    13.16    
 13.72    14.33    15.00    15.73    16.53    17.42    18.43    19.57    20.79    22.15    
 23.76    25.53    27.51    29.84    32.45    35.56    39.21    43.49    48.54    54.66    
 61.71    69.94    79.01    89.22    100.43   112.24   124.88   137.47   150.17   162.73   
 174.36   184.97   193.97   201.40   206.72   209.99   211.28   210.62   208.13   204.11   
 199.78   194.19   187.24   179.04   170.72   162.81   154.26   144.77   134.59   124.32   
 116.04   
365584.06 364202.50 360781.06 354247.42 340111.93 316291.34 282503.17 243369.67 198514.59 156914.30 
 117728.29 89354.73 61104.34 47532.94 36132.86 28931.68 23002.07 16180.03 12859.42 10425.39 
 8001.67  5577.95  4536.73  2959.49  2257.05  1523.76  1005.22  488.93   387.21   281.35   
 201.25   146.49   118.22   90.26    76.10    64.35    54.85    47.35    40.88    35.72    
 31.27    27.46    24.46    21.90    19.82    18.00    16.36    15.00    13.83    12.64    
 11.47    10.24    8.71     7.29     6.72     6.47     6.20     5.97     5.76     5.54     
 5.34     5.15     4.99     4.83     4.69     4.55     4.44     4.33     4.24     4.15     
 4.07     3.97     3.87     3.74     3.60     3.44     3.26     3.08     2.88     2.66     
 2.46     2.20     2.00     1.95     1.96     2.02     2.10     2.18     2.28     2.38     
 2.49     2.62     2.74     2.89     3.03     3.18     3.34     3.51     3.69     3.87     
 4.06     4.26     4.47     4.69     4.91     5.14     5.38     5.61     5.86     6.12     
 6.38     6.64     6.92     7.19     7.48     7.77     8.06     8.36     8.67     8.99     
 9.31     9.62     9.96     10.30    10.64    10.99    11.37    11.75    12.15    12.59    
 13.06    13.56    14.08    14.70    15.41    16.18    17.07    18.09    19.23    20.55    
 22.05    23.75    25.79    28.14    30.92    34.24    38.25    42.91    48.39    55.06    
 62.80    71.35    80.75    90.85    102.37   114.35   126.50   138.35   150.16   161.90   
 172.61   181.91   190.07   196.86   201.86   205.10   206.65   206.38   205.51   201.79   
 196.92   191.09   184.65   177.33   169.14   161.46   153.74   144.86   135.53   126.24   
 116.04   
365584.06 363964.68 360129.76 352445.85 335772.84 307638.91 266818.05 225997.19 185185.54 145660.47 
 113851.15 89756.71 71342.24 58147.46 47868.64 39626.08 33027.06 28435.36 23843.66 19256.99 
 15352.29 12187.29 9976.41  8370.76  6872.61  5626.37  4646.13  3974.27  3502.53  3086.59  
 2709.92  2333.81  2032.84  1771.56  1533.84  1319.52  1123.37  960.07   808.26   670.06   
 547.67   438.12   341.06   284.64   228.23   171.96   134.21   102.42   80.69    64.19    
 51.32    42.28    35.88    30.73    27.01    23.78    21.20    19.23    17.38    15.98    
 14.81    13.88    13.04    12.32    11.51    10.57    9.79     8.99     8.78     8.69     
 8.61     8.54     8.40     8.30     8.18     8.08     7.94     7.78     7.59     7.22     
 6.62     5.77     4.68     2.82     1.63     1.65     1.71     1.78     1.85     1.93     
 2.01     2.10     2.20     2.32     2.43     2.56     2.70     2.84     2.99     3.15     
 3.31     3.48     3.66     3.84     4.04     4.24     4.45     4.67     4.90     5.13     
 5.37     5.62     5.89     6.16     6.42     6.70     6.98     7.29     7.58     7.87     
 8.17     8.48     8.80     9.13     9.44     9.75     10.09    10.44    10.79    11.16    
 11.55    11.95    12.39    12.90    13.44    14.04    14.75    15.57    16.51    17.65    
 19.00    20.62    22.47    24.77    27.53    30.94    35.00    39.93    45.70    52.56    
 60.25    69.00    78.41    88.68    99.65    110.90   122.49   134.00   145.45   156.21   
 166.13   175.17   183.07   189.94   195.35   199.52   202.19   204.48   204.10   202.29   
 199.16   194.90   189.50   183.23   175.35   167.78   160.17   151.51   142.43   132.87   
 116.04   
365584.06 364326.67 360747.64 353337.80 337346.99 309651.64 268638.92 227626.24 186619.23 146246.41 
 113804.72 90154.71 72807.26 59731.63 49481.66 40922.74 34014.23 28642.15 24769.00 20904.55 
 17893.79 15294.60 13086.20 11224.21 9622.15  8306.84  7323.75  6617.03  6137.73  5756.03  
 5422.48  5124.60  4857.94  4604.82  4353.23  4131.65  3924.66  3740.64  3581.27  3421.23  
 3272.01  3129.05  2977.93  2845.11  2711.25  2577.38  2443.51  2309.42  2176.45  2054.26  
 1942.46  1832.79  1730.03  1631.46  1535.92  1448.41  1357.43  1271.41  1184.37  1097.51  
 1015.57  936.14   863.06   787.88   715.54   646.17   580.54   516.62   454.90   398.83   
 346.57   297.09   258.70   220.32   182.04   151.75   126.51   105.65   89.39    74.99    
 62.76    54.25    45.27    37.53    29.63    1.83     1.68     1.00     0.87     0.82     
 0.78     0.75     0.75     0.77     0.78     0.79     0.81     0.82     0.85     0.86     
 0.88     0.91     0.93     0.96     0.99     1.02     1.05     1.09     1.14     1.18     
 1.22     1.27     1.32     1.37     1.42     1.47     1.51     1.56     1.62     1.67     
 1.72     1.79     1.84     1.90     1.96     2.03     2.09     2.16     2.23     2.31     
 2.39     2.48     2.58     2.69     2.81     2.95     3.11     3.31     3.51     3.76     
 4.07     4.43     4.86     5.42     6.05     6.80     7.66     8.63     9.70     10.94    
 12.25    13.64    15.17    16.85    18.66    20.59    22.65    24.84    27.08    29.35    
 31.63    33.92    36.23    38.57    40.92    43.36    45.85    48.35    51.95    54.54    
 57.25    60.27    63.78    68.00    72.12    78.04    85.40    93.21    101.68   111.12   
 116.04   
365584.06 363850.45 359655.13 350942.05 333432.40 304408.93 264945.29 220613.86 178127.61 140899.96 
 113337.36 93646.61 74022.96 61839.45 52184.32 44390.20 38177.18 33139.18 28990.32 25279.02 
 21977.31 19088.90 16436.57 14168.47 12163.71 10751.78 9344.53  8421.82  7739.10  7217.52  
 6815.20  6467.48  6170.56  5930.39  5711.89  5534.71  5383.45  5235.60  5101.72  4972.77  
 4854.64  4744.20  4629.44  4496.67  4368.14  4235.65  4100.32  3967.78  3838.45  3714.34  
 3608.56  3499.43  3397.05  3293.54  3191.21  3090.49  2993.39  2892.31  2794.40  2690.12  
 2589.79  2488.57  2387.46  2282.37  2178.83  2074.51  1974.57  1872.27  1763.97  1654.81  
 1547.65  1442.50  1336.05  1227.72  1126.19  1024.74  934.64   847.53   765.52   689.15   
 618.37   554.99   495.37   441.70   395.78   356.00   323.92   297.15   277.32   259.22   
 241.48   222.92   205.22   189.72   175.40   161.94   150.39   140.48   130.98   122.11   
 113.25   106.28   100.09   94.43    88.98    84.11    79.64    75.37    71.85    68.20    
 64.44    61.21    58.19    54.73    51.49    48.37    45.37    42.45    39.58    36.68    
 34.08    31.54    28.89    26.35    23.78    21.07    17.99    15.06    12.14    9.54     
 6.50     4.81     3.60     2.53     2.04     2.01     2.09     2.22     2.38     2.57     
 2.80     3.09     3.44     3.89     4.44     5.08     5.84     6.71     7.70     8.80     
 10.01    11.31    12.71    14.27    15.91    17.60    19.42    21.27    23.17    25.11    
 27.08    29.09    31.11    33.18    35.23    37.37    39.57    41.81    44.23    47.45    
 50.41    53.36    56.90    61.10    65.45    71.62    79.43    87.98    97.31    107.77   
 116.04   
365584.06 364005.06 359983.83 352205.00 335883.30 308807.42 267226.40 225645.38 184107.37 146843.09 
 118798.72 98259.50 82060.79 69302.15 59303.47 51723.40 45622.19 40314.23 35946.83 32358.61 
 28776.81 25613.57 22455.74 19791.98 17312.75 15251.54 13501.47 11986.97 10686.61 9604.70  
 8704.68  7957.96  7380.37  6953.77  6659.40  6424.46  6228.84  6055.80  5905.64  5769.93  
 5644.20  5519.55  5391.08  5271.75  5150.94  5039.59  4917.81  4790.86  4664.64  4533.76  
 4411.67  4292.39  4175.10  4057.69  3936.05  3821.96  3705.06  3587.30  3463.10  3333.31  
 3202.67  3068.01  2929.86  2799.30  2671.62  2543.94  2416.26  2288.42  2160.52  2027.17  
 1893.83  1753.93  1625.38  1505.67  1386.84  1266.70  1146.28  1038.08  936.66   841.79   
 753.67   670.58   599.67   536.25   481.72   435.03   399.44   370.55   346.43   327.30   
 308.63   288.99   270.78   254.57   239.99   225.45   214.18   203.62   193.69   184.99   
 177.33   170.51   164.12   158.24   152.95   148.03   143.84   139.57   135.69   132.16   
 129.03   125.74   122.60   119.79   117.13   114.28   111.68   109.08   106.54   104.02   
 101.58   99.25    97.01    94.71    92.40    89.97    87.53    85.01    82.35    79.70    
 76.93    74.36    71.83    68.97    66.25    63.48    60.28    56.94    54.09    51.04    
 47.62    44.39    41.30    38.47    35.47    31.78    20.85    10.26    7.99     7.33     
 8.11     9.45     10.89    12.47    14.16    15.95    17.87    19.88    21.98    24.08    
 26.19    28.29    30.43    32.56    34.60    36.63    38.64    40.61    42.58    44.67    
 46.92    49.93    53.23    57.47    61.80    67.73    75.41    84.16    94.27    105.20   
 116.04   
365584.06 363689.22 359524.35 351427.91 335353.56 308495.69 269335.77 224531.06 182041.36 147548.44 
 120354.55 102443.73 84612.38 72689.54 63528.17 55972.40 50191.08 45424.04 41025.72 36950.31 
 33106.70 29679.48 26449.34 23434.04 20779.86 18543.32 16582.65 14889.49 13363.18 11988.33 
 10797.97 9609.34  8700.43  8022.07  7532.18  7180.76  6898.93  6657.30  6433.40  6238.59  
 6072.45  5907.39  5765.92  5643.48  5523.20  5400.13  5275.85  5161.56  5055.36  4944.02  
 4826.15  4696.32  4561.97  4439.58  4318.10  4184.23  4045.05  3895.42  3744.49  3597.57  
 3449.87  3306.96  3158.11  3015.59  2877.53  2737.11  2596.68  2454.64  2302.58  2153.64  
 2005.13  1867.83  1732.19  1590.20  1450.95  1324.91  1200.60  1081.25  961.94   862.02   
 774.50   693.68   618.72   552.37   500.60   459.05   423.63   391.71   365.63   346.62   
 327.68   308.00   289.35   273.56   259.56   248.10   238.57   230.43   223.21   216.81   
 210.81   205.55   200.64   196.59   192.50   188.77   185.73   182.94   180.34   177.90   
 175.86   173.81   171.77   169.86   168.16   166.25   164.47   162.52   160.31   157.88   
 155.83   153.62   151.53   149.14   147.01   144.80   142.49   140.02   137.51   134.90   
 132.25   129.43   125.93   122.43   119.27   115.96   112.54   108.96   105.58   101.77   
 97.63    93.72    89.92    86.03    82.22    79.10    75.60    70.31    65.40    63.60    
 59.90    56.66    52.18    49.36    45.78    23.88    20.75    21.02    22.40    23.75    
 25.79    28.31    30.95    33.66    36.35    38.79    40.88    42.90    44.71    46.28    
 47.71    49.23    51.21    53.93    57.68    63.15    70.54    79.86    90.26    101.58   
 116.04   
