IESNA:LM-63-2002
[TEST] 1
[TESTLAB] AOK
[TESTDATE] 2022-05-16
[ISSUEDATE] 2022-05-16 09:09:43
[NEARFIELD] 
[LAMPPOSITION] 0,0
[OTHER] EVERFINE GO-2000A_V1 SYSTEM
[MANUFAC] AOK
[LUMCAT] A
[LUMINAIRE] AOK-400WiSF-NVY-S5-00-5070-3585D-P
[LAMPCAT] B
[LAMP] 5050
[BALLAST] E
[BALLASTCAT] F
[OTHER] 
[OTHER] Gamma(deg)    Fz(lm)      Ft(lm)     %Lum    %Lamp
[OTHER]   0- 10      4109.08     4109.08     7.93     7.93
[OTHER]  10- 20      8652.98    12762.06    24.63    24.63
[OTHER]  20- 30      9945.17    22707.23    43.83    43.83
[OTHER]  30- 40      9791.13    32498.36    62.73    62.73
[OTHER]  40- 50      8070.00    40568.37    78.31    78.31
[OTHER]  50- 60      5745.19    46313.56    89.40    89.40
[OTHER]  60- 70      3240.26    49553.82    95.65    95.65
[OTHER]  70- 80      1339.10    50892.92    98.24    98.24
[OTHER]  80- 90       422.58    51315.50    99.05    99.05
[OTHER]  90-100       169.15    51484.65    99.38    99.38
[OTHER] 100-110        90.44    51575.09    99.55    99.55
[OTHER] 110-120        65.57    51640.66    99.68    99.68
[OTHER] 120-130        51.11    51691.77    99.78    99.78
[OTHER] 130-140        40.05    51731.82    99.86    99.86
[OTHER] 140-150        31.36    51763.17    99.92    99.92
[OTHER] 150-160        23.64    51786.81    99.96    99.96
[OTHER] 160-170        14.48    51801.29    99.99    99.99
[OTHER] 170-180         5.09    51806.38   100.00   100.00
[OTHER] 
TILT=NONE
1 51806 1 181 25 1 2 0.150 0.200 0.000
1.000 1 384.797
0.0    1.0    2.0    3.0    4.0    5.0    6.0    7.0    8.0    9.0    
 10.0   11.0   12.0   13.0   14.0   15.0   16.0   17.0   18.0   19.0   
 20.0   21.0   22.0   23.0   24.0   25.0   26.0   27.0   28.0   29.0   
 30.0   31.0   32.0   33.0   34.0   35.0   36.0   37.0   38.0   39.0   
 40.0   41.0   42.0   43.0   44.0   45.0   46.0   47.0   48.0   49.0   
 50.0   51.0   52.0   53.0   54.0   55.0   56.0   57.0   58.0   59.0   
 60.0   61.0   62.0   63.0   64.0   65.0   66.0   67.0   68.0   69.0   
 70.0   71.0   72.0   73.0   74.0   75.0   76.0   77.0   78.0   79.0   
 80.0   81.0   82.0   83.0   84.0   85.0   86.0   87.0   88.0   89.0   
 90.0   91.0   92.0   93.0   94.0   95.0   96.0   97.0   98.0   99.0   
 100.0  101.0  102.0  103.0  104.0  105.0  106.0  107.0  108.0  109.0  
 110.0  111.0  112.0  113.0  114.0  115.0  116.0  117.0  118.0  119.0  
 120.0  121.0  122.0  123.0  124.0  125.0  126.0  127.0  128.0  129.0  
 130.0  131.0  132.0  133.0  134.0  135.0  136.0  137.0  138.0  139.0  
 140.0  141.0  142.0  143.0  144.0  145.0  146.0  147.0  148.0  149.0  
 150.0  151.0  152.0  153.0  154.0  155.0  156.0  157.0  158.0  159.0  
 160.0  161.0  162.0  163.0  164.0  165.0  166.0  167.0  168.0  169.0  
 170.0  171.0  172.0  173.0  174.0  175.0  176.0  177.0  178.0  179.0  
 180.0  
0.0    15.0   30.0   45.0   60.0   75.0   90.0   105.0  120.0  135.0  
 150.0  165.0  180.0  195.0  210.0  225.0  240.0  255.0  270.0  285.0  
 300.0  315.0  330.0  345.0  360.0  
45478.50 43134.67 41920.39 41190.18 37562.14 31967.74 27683.76 23436.42 18263.04 14836.39 
 11132.69 7425.51  3718.34  1909.07  120.54   69.13    35.84    26.21    20.52    17.17    
 14.94    12.99    11.50    10.62    9.89     9.22     8.50     7.93     7.44     7.15     
 7.09     6.88     6.43     5.80     5.27     5.09     4.96     4.92     4.71     4.67     
 4.62     4.51     4.25     4.15     4.11     4.10     4.09     4.05     3.95     3.81     
 3.72     3.64     3.57     3.49     3.43     3.32     3.19     3.10     3.04     2.94     
 2.89     2.88     2.85     2.78     2.72     2.65     2.57     2.51     2.45     2.41     
 2.39     2.36     2.34     2.31     2.29     2.28     2.28     2.28     2.29     2.34     
 2.40     2.46     2.53     2.63     2.80     2.96     3.09     3.21     3.33     3.46     
 3.61     3.76     3.94     4.12     4.29     4.47     4.69     4.93     5.21     5.52     
 5.89     6.28     6.70     7.19     7.68     8.18     8.73     9.31     9.91     10.53    
 11.18    11.86    12.55    13.27    13.99    14.74    15.52    16.30    17.13    18.01    
 18.92    19.90    20.92    22.01    23.14    24.36    25.65    26.98    28.33    29.71    
 31.11    32.56    34.03    35.53    36.99    38.43    39.90    41.36    42.82    44.27    
 45.72    47.20    48.77    50.47    52.28    54.11    55.98    57.90    59.86    62.01    
 64.32    66.66    69.01    71.29    73.48    75.56    77.61    79.54    81.21    82.65    
 83.86    84.91    85.70    86.12    86.17    85.82    85.05    83.88    82.27    80.31    
 78.09    75.58    72.88    70.08    67.14    64.15    61.21    58.26    55.27    52.11    
 48.72    
45478.50 43181.79 41851.81 41049.83 39974.98 33224.65 29588.58 25098.02 20617.97 17522.89 
 12523.23 9684.46  6568.57  3503.73  465.20   352.49   239.78   128.01   113.61   108.32   
 109.91   82.24    65.19    73.00    71.56    59.65    43.26    37.38    32.12    23.42    
 17.92    15.17    13.38    11.89    10.49    9.07     8.43     8.28     7.96     7.74     
 7.59     7.26     7.00     6.66     6.28     5.88     5.60     5.34     5.06     4.78     
 4.54     4.29     4.05     3.82     3.59     3.38     3.17     3.00     2.86     2.74     
 2.64     2.55     2.46     2.36     2.29     2.23     2.19     2.15     2.12     2.09     
 2.04     2.01     1.98     1.96     1.96     1.97     1.97     1.98     2.00     2.05     
 2.09     2.15     2.23     2.31     2.40     2.51     2.62     2.74     2.87     3.01     
 3.19     3.36     3.54     3.75     3.98     4.23     4.50     4.80     5.13     5.49     
 5.88     6.30     6.79     7.29     7.80     8.33     8.88     9.46     10.06    10.68    
 11.32    12.00    12.72    13.43    14.15    14.93    15.74    16.58    17.43    18.33    
 19.32    20.35    21.46    22.58    23.73    24.94    26.22    27.54    28.88    30.23    
 31.61    32.97    34.33    35.69    37.01    38.32    39.65    40.95    42.24    43.58    
 45.01    46.49    48.03    49.66    51.36    53.13    54.95    56.88    58.87    60.98    
 63.18    65.44    67.64    69.87    72.01    74.00    75.86    77.51    78.98    80.25    
 81.35    82.26    82.88    83.22    83.17    82.73    81.92    80.73    79.14    77.32    
 75.29    73.09    70.86    68.58    66.20    63.79    61.27    58.60    55.82    52.96    
 48.72    
45478.50 43458.80 42142.10 41373.09 40907.29 37306.61 32113.92 28588.99 25151.44 19827.02 
 16790.44 12740.71 9804.55  6880.96  4252.57  917.08   637.26   388.60   256.49   225.53   
 183.89   149.79   144.88   141.41   121.85   102.11   85.32    75.57    77.68    67.46    
 65.78    55.03    50.97    50.16    43.93    43.84    34.68    32.46    34.00    31.97    
 29.71    29.71    33.00    30.92    28.01    27.62    26.42    24.86    21.29    20.90    
 18.78    16.09    11.98    9.98     9.14     8.76     8.10     7.39     6.59     5.75     
 4.99     4.45     4.06     3.79     3.48     3.14     2.80     2.54     2.35     2.22     
 2.12     2.05     2.01     1.98     1.95     1.94     1.94     1.92     1.92     1.92     
 1.96     2.02     2.11     2.21     2.32     2.45     2.59     2.76     2.94     3.14     
 3.36     3.61     3.88     4.18     4.51     4.87     5.27     5.68     6.11     6.56     
 7.05     7.54     8.06     8.61     9.17     9.78     10.41    11.07    11.74    12.46    
 13.22    13.97    14.77    15.61    16.50    17.42    18.34    19.28    20.28    21.34    
 22.42    23.51    24.62    25.75    26.91    28.04    29.18    30.33    31.49    32.65    
 33.80    34.96    36.10    37.28    38.53    39.84    41.18    42.55    43.98    45.49    
 47.09    48.75    50.46    52.20    54.00    55.93    57.93    59.93    61.92    63.91    
 65.92    67.92    69.81    71.55    73.27    74.79    76.17    77.41    78.55    79.55    
 80.31    80.80    81.03    80.99    80.67    80.06    79.16    78.01    76.69    75.21    
 73.58    71.84    70.06    68.13    66.17    64.21    62.17    60.08    57.93    55.71    
 48.72    
45478.50 43971.66 42516.88 41698.94 41108.43 40410.99 38610.85 33240.58 30079.22 26996.85 
 23718.90 20438.93 16928.74 15235.71 11207.24 9205.90  6744.11  4780.52  2816.92  866.05   
 624.80   457.82   365.58   303.56   241.54   179.80   148.44   112.47   88.58    76.62    
 67.53    59.77    55.09    50.88    47.56    44.23    41.48    38.34    35.51    33.39    
 30.92    28.50    25.72    23.69    21.50    20.56    19.88    19.33    18.51    17.73    
 16.81    15.76    14.60    13.24    12.02    11.12    10.38    9.72     9.07     8.41     
 7.79     7.19     6.62     6.15     5.72     5.36     5.01     4.66     4.29     3.92     
 3.57     3.25     2.98     2.75     2.56     2.40     2.26     2.16     2.11     2.11     
 2.11     2.15     2.22     2.33     2.48     2.65     2.84     3.07     3.32     3.59     
 3.89     4.21     4.56     4.94     5.34     5.74     6.19     6.67     7.16     7.67     
 8.21     8.75     9.33     9.94     10.59    11.25    11.96    12.69    13.43    14.20    
 15.01    15.89    16.76    17.62    18.55    19.52    20.50    21.51    22.50    23.48    
 24.52    25.59    26.69    27.80    28.91    30.03    31.22    32.44    33.69    34.95    
 36.26    37.59    38.98    40.39    41.79    43.25    44.79    46.34    47.89    49.53    
 51.21    52.89    54.57    56.28    57.95    59.67    61.33    62.99    64.53    66.05    
 67.51    68.90    70.17    71.42    72.59    73.64    74.56    75.29    75.92    76.38    
 76.68    76.83    76.77    76.52    76.10    75.56    74.91    74.14    73.25    72.28    
 71.24    70.11    68.91    67.65    66.34    64.95    63.50    62.02    60.51    58.90    
 48.72    
45478.50 44501.84 43498.76 42549.26 41738.91 40936.02 39750.82 39202.28 38350.48 35277.35 
 31585.79 29148.51 26771.80 24499.47 22801.63 20120.72 17183.41 14972.93 13493.87 11324.56 
 9522.72  7725.38  6000.87  4798.46  3146.02  1473.37  1147.75  836.26   524.76   392.67   
 298.68   225.89   187.45   161.13   140.94   124.66   108.42   92.19    80.55    69.98    
 61.30    53.41    46.63    41.56    36.97    32.92    28.62    25.85    23.32    20.83    
 19.05    17.45    15.45    13.57    12.37    11.58    11.00    10.41    9.82     9.25     
 8.71     8.20     7.70     7.25     6.84     6.47     6.13     5.84     5.58     5.35     
 5.14     4.93     4.71     4.44     4.20     3.97     3.73     3.51     3.29     3.06     
 2.86     2.70     2.64     2.68     2.85     3.06     3.28     3.54     3.81     4.12     
 4.43     4.80     5.18     5.59     6.03     6.48     6.96     7.48     8.04     8.64     
 9.28     9.96     10.66    11.39    12.17    13.00    13.86    14.71    15.59    16.48    
 17.43    18.39    19.39    20.40    21.46    22.59    23.70    24.84    26.01    27.25    
 28.51    29.77    31.04    32.36    33.74    35.10    36.48    37.90    39.36    40.82    
 42.27    43.72    45.15    46.58    48.05    49.54    51.01    52.48    53.91    55.32    
 56.75    58.21    59.63    61.00    62.33    63.57    64.77    65.87    66.94    67.93    
 68.82    69.61    70.33    71.00    71.59    72.07    72.44    72.74    72.96    73.11    
 73.20    73.21    73.18    73.06    72.92    72.70    72.44    72.12    71.78    71.30    
 70.70    70.06    69.38    68.65    67.91    67.10    66.20    65.22    64.23    63.13    
 48.72    
45478.50 45068.92 44674.43 44250.04 43483.64 42598.15 41676.51 40970.54 40015.39 39165.12 
 38321.75 37384.50 36688.41 35949.77 35164.14 34267.46 33369.12 31888.67 29998.56 27718.52 
 25693.73 24243.87 22793.95 21335.47 19820.72 18135.25 16651.19 15566.18 13732.65 12089.52 
 10705.22 9239.53  8204.79  7083.20  6036.43  4923.47  4113.90  3564.35  2993.21  2422.06  
 1852.48  1441.69  1076.59  847.82   668.51   513.10   349.06   271.11   193.49   153.02   
 121.89   100.88   83.92    69.55    60.19    51.00    44.09    38.70    33.42    29.26    
 25.99    23.13    20.46    18.22    16.36    14.84    13.60    11.86    10.72    10.15    
 9.76     9.43     9.09     8.73     8.41     8.06     7.80     7.53     7.29     6.87     
 6.26     5.41     4.39     3.18     2.48     2.60     2.78     2.98     3.20     3.44     
 3.71     4.01     4.34     4.69     5.08     5.49     5.96     6.44     6.94     7.49     
 8.06     8.65     9.29     9.96     10.69    11.43    12.22    13.06    13.93    14.84    
 15.79    16.79    17.83    18.90    19.97    21.08    22.21    23.35    24.49    25.64    
 26.88    28.15    29.47    30.77    32.06    33.38    34.77    36.20    37.60    39.00    
 40.42    41.80    43.20    44.58    45.92    47.27    48.62    49.94    51.22    52.49    
 53.74    54.95    56.11    57.23    58.35    59.44    60.47    61.47    62.44    63.37    
 64.26    65.09    65.87    66.61    67.30    67.94    68.55    69.10    69.63    70.08    
 70.50    70.88    71.22    71.59    71.93    72.26    72.58    72.80    72.93    72.85    
 72.59    72.28    71.92    71.55    71.12    70.65    70.10    69.40    68.65    67.90    
 48.72    
45478.50 45685.21 45895.89 46099.14 46012.00 45754.43 45315.30 45076.48 44543.26 44033.39 
 43591.26 43108.94 42619.06 42167.40 41556.45 41025.54 40492.16 40079.52 39398.75 38719.76 
 38034.29 37290.25 36695.80 36209.34 35348.59 34692.40 33717.09 32850.87 32063.42 31172.96 
 30362.41 29325.39 28323.78 27257.97 26189.31 25223.44 24257.56 23289.91 22173.46 21134.89 
 20060.68 19118.34 18007.97 17059.22 15976.88 15057.39 14055.75 13153.14 12140.59 11308.36 
 10447.14 9573.35  8732.35  7981.84  7273.37  6582.16  5946.59  5417.43  4848.71  4301.32  
 3807.93  3382.72  2989.09  2654.77  2321.08  2048.77  1786.33  1554.08  1334.17  1149.31  
 981.45   831.91   700.49   585.96   483.90   391.17   313.76   256.50   199.41   157.78   
 120.62   91.40    69.73    53.53    38.68    13.52    6.33     3.15     1.91     1.69     
 1.54     1.44     1.23     1.24     1.26     1.29     1.33     1.37     1.42     1.47     
 1.53     1.61     1.69     1.78     1.88     1.99     2.11     2.24     2.38     2.53     
 2.69     2.85     3.02     3.21     3.41     3.60     3.81     4.02     4.25     4.51     
 4.77     5.06     5.34     5.63     5.94     6.26     6.59     6.93     7.27     7.64     
 8.01     8.39     8.80     9.21     9.61     10.01    10.46    10.92    11.39    11.85    
 12.35    12.87    13.41    14.00    14.60    15.26    15.96    16.65    17.37    18.09    
 18.82    19.57    20.38    21.24    22.15    23.09    24.14    25.32    26.59    27.90    
 29.25    30.67    32.14    33.70    35.31    37.04    38.86    40.54    42.16    43.80    
 45.46    47.09    48.71    50.29    51.75    53.15    54.53    55.75    56.96    58.17    
 48.72    
45478.50 46333.40 47153.28 47900.41 48437.56 48843.14 49027.90 49395.34 49603.77 49895.13 
 49994.22 50023.22 50091.85 50172.90 50141.33 50145.11 49996.52 49850.43 49551.66 49054.45 
 48366.43 47773.19 47048.07 46353.99 45366.39 44509.23 43564.54 42469.12 41253.10 39955.51 
 38757.63 37681.31 36485.47 35320.72 34244.76 33105.16 31940.89 30792.52 29759.86 28648.93 
 27589.44 26683.18 25726.13 24688.17 23717.85 22724.00 21629.34 20727.04 19822.28 18840.97 
 17930.04 16964.92 15987.21 15146.05 14390.60 13595.71 12832.65 12089.98 11395.53 10701.48 
 10014.11 9351.06  8711.23  8090.78  7524.70  6941.20  6380.78  5866.23  5348.82  4863.20  
 4384.37  3953.35  3538.53  3138.58  2779.11  2475.84  2224.06  1959.29  1727.43  1514.21  
 1345.20  1212.88  1078.03  943.17   843.18   749.90   676.55   614.67   553.07   498.14   
 448.98   399.21   352.42   315.06   282.21   252.51   227.05   205.28   186.21   168.57   
 154.33   141.38   129.16   119.20   109.26   101.35   94.79    88.48    83.56    78.79    
 74.56    70.81    67.66    64.23    61.10    58.06    54.96    52.38    49.63    47.25    
 44.71    42.25    40.21    37.71    35.28    32.77    30.25    27.68    25.01    22.02    
 18.09    14.53    11.68    9.74     7.99     6.93     6.69     6.89     7.27     7.68     
 8.10     8.53     8.96     9.40     9.83     10.28    10.72    11.16    11.59    12.04    
 12.50    12.97    13.46    13.97    14.57    15.20    15.90    16.64    17.51    18.42    
 19.41    20.53    21.76    23.13    24.63    26.27    28.04    29.78    31.69    33.54    
 35.51    37.53    39.62    41.66    43.69    45.71    47.64    49.55    51.45    53.49    
 48.72    
45478.50 46901.76 48216.08 49506.27 50794.90 51950.67 52769.55 53650.74 54376.26 54999.17 
 55254.41 55396.93 55171.37 54430.39 53311.84 51910.60 50749.96 49535.25 48498.78 47567.55 
 46465.38 45439.06 44348.74 43297.96 42184.08 41182.02 40108.07 39078.41 38053.07 37052.35 
 36089.32 35018.99 33956.21 32844.62 31688.21 30484.18 29340.99 28238.11 27145.00 26193.20 
 25288.09 24382.97 23479.30 22714.98 21933.21 21198.66 20453.14 19748.66 19063.99 18365.15 
 17673.75 16958.33 16244.19 15471.55 14748.27 14064.81 13401.50 12787.90 12131.39 11433.70 
 10772.64 10139.78 9546.54  9025.61  8551.38  8094.80  7614.63  7066.10  6538.56  6026.65  
 5561.18  5090.27  4642.74  4207.23  3786.51  3311.52  2942.98  2574.44  2207.02  1942.36  
 1665.89  1402.84  1221.04  1052.81  928.14   816.18   734.24   667.39   614.26   568.94   
 522.49   477.74   435.22   396.19   362.09   333.47   306.99   284.05   263.17   244.52   
 225.92   211.30   198.69   187.34   176.75   167.53   159.42   151.82   144.98   139.05   
 133.68   128.90   124.06   119.40   115.19   111.12   107.41   103.58   100.06   96.72    
 93.49    90.28    87.30    84.43    81.69    78.82    75.99    72.92    70.20    67.32    
 64.82    62.10    59.55    57.08    54.67    52.33    49.87    47.15    44.50    41.91    
 39.27    36.39    32.64    30.26    27.76    22.71    20.51    14.95    9.16     8.04     
 7.78     8.13     8.60     9.11     9.62     10.14    10.68    11.26    11.89    12.63    
 13.43    14.26    15.17    16.22    17.38    18.69    20.15    21.70    23.36    25.22    
 27.33    29.45    31.69    33.97    36.41    38.89    41.51    44.15    46.97    49.87    
 48.72    
45478.50 47325.78 49093.54 50876.71 52507.49 54164.70 55650.44 56473.63 56857.79 56652.85 
 55139.92 53747.73 52661.46 51653.95 50659.10 49608.16 48687.75 47673.71 46486.51 45225.55 
 43819.66 42336.29 40828.18 39175.51 37593.82 36189.24 34898.43 33748.08 32619.67 31723.75 
 31046.39 30543.37 30126.11 29725.64 29281.21 28864.47 28447.97 28055.54 27620.33 27019.48 
 26312.85 25565.14 24801.02 24076.83 23353.00 22565.02 21624.10 20633.77 19691.21 18825.27 
 17966.27 17149.02 16364.23 15599.78 14935.69 14252.48 13561.07 12837.51 12117.69 11419.92 
 10722.31 10084.53 9448.71  8844.16  8232.20  7636.01  7044.84  6458.59  5784.57  5134.62  
 4575.57  4120.56  3714.66  3331.96  2957.21  2642.22  2285.56  2001.23  1766.72  1562.73  
 1363.87  1199.21  1067.02  935.07   838.24   755.22   683.57   619.46   572.09   531.25   
 492.09   452.20   413.52   381.08   350.92   324.75   303.08   284.60   268.90   254.90   
 242.44   231.17   221.14   212.48   203.92   195.79   188.79   182.47   176.60   170.77   
 165.21   160.13   155.09   150.59   146.44   142.38   138.67   134.97   131.35   127.67   
 123.98   120.69   117.33   113.81   110.39   107.33   104.21   100.82   97.65    94.43    
 91.21    88.23    85.07    82.10    79.17    76.19    73.55    70.64    67.80    64.98    
 62.15    58.76    56.07    53.59    51.22    49.07    47.05    44.15    41.02    37.59    
 35.08    30.89    29.06    26.55    25.14    21.63    12.90    11.88    11.28    11.00    
 10.62    10.66    11.41    12.34    13.36    14.46    15.60    16.79    18.23    19.85    
 21.68    23.70    25.88    28.19    30.64    33.27    36.01    39.15    42.50    46.13    
 48.72    
45478.50 47669.65 49748.56 51823.89 53933.81 55912.68 57000.11 57530.87 56472.50 55073.97 
