IESNA:LM-63-2002
[TEST] 1
[TESTLAB] AOK
[TESTDATE] 2022-06-09
[ISSUEDATE] 2022-06-09 18:45:52
[NEARFIELD] 
[LAMPPOSITION] 0,0
[OTHER] EVERFINE GO-2000A_V1 SYSTEM
[MANUFAC] AOK
[LUMCAT] A
[LUMINAIRE] AOK-400WiSF-NV-S35-00-5070-2030D-P
[LAMPCAT] B
[LAMP] 3535
[BALLAST] E
[BALLASTCAT] F
[OTHER] 
[OTHER] Gamma(deg)    Fz(lm)      Ft(lm)     %Lum    %Lamp
[OTHER]   0- 10     15793.83    15793.83    30.49    30.49
[OTHER]  10- 20     17882.29    33676.12    65.02    65.02
[OTHER]  20- 30      7449.07    41125.19    79.40    79.40
[OTHER]  30- 40      3891.07    45016.26    86.91    86.91
[OTHER]  40- 50      2432.46    47448.73    91.61    91.61
[OTHER]  50- 60      1806.34    49255.07    95.09    95.09
[OTHER]  60- 70      1208.43    50463.50    97.43    97.43
[OTHER]  70- 80       588.41    51051.90    98.56    98.56
[OTHER]  80- 90       241.62    51293.52    99.03    99.03
[OTHER]  90-100       126.65    51420.17    99.27    99.27
[OTHER] 100-110        90.91    51511.08    99.45    99.45
[OTHER] 110-120        73.50    51584.58    99.59    99.59
[OTHER] 120-130        55.87    51640.45    99.70    99.70
[OTHER] 130-140        41.21    51681.66    99.78    99.78
[OTHER] 140-150        35.01    51716.67    99.84    99.84
[OTHER] 150-160        37.83    51754.50    99.92    99.92
[OTHER] 160-170        31.12    51785.62    99.98    99.98
[OTHER] 170-180        11.43    51797.05   100.00   100.00
[OTHER] 
TILT=NONE
1 51797 1 181 25 1 2 0.150 0.200 0.000
1.000 1 402.484
0.0    1.0    2.0    3.0    4.0    5.0    6.0    7.0    8.0    9.0    
 10.0   11.0   12.0   13.0   14.0   15.0   16.0   17.0   18.0   19.0   
 20.0   21.0   22.0   23.0   24.0   25.0   26.0   27.0   28.0   29.0   
 30.0   31.0   32.0   33.0   34.0   35.0   36.0   37.0   38.0   39.0   
 40.0   41.0   42.0   43.0   44.0   45.0   46.0   47.0   48.0   49.0   
 50.0   51.0   52.0   53.0   54.0   55.0   56.0   57.0   58.0   59.0   
 60.0   61.0   62.0   63.0   64.0   65.0   66.0   67.0   68.0   69.0   
 70.0   71.0   72.0   73.0   74.0   75.0   76.0   77.0   78.0   79.0   
 80.0   81.0   82.0   83.0   84.0   85.0   86.0   87.0   88.0   89.0   
 90.0   91.0   92.0   93.0   94.0   95.0   96.0   97.0   98.0   99.0   
 100.0  101.0  102.0  103.0  104.0  105.0  106.0  107.0  108.0  109.0  
 110.0  111.0  112.0  113.0  114.0  115.0  116.0  117.0  118.0  119.0  
 120.0  121.0  122.0  123.0  124.0  125.0  126.0  127.0  128.0  129.0  
 130.0  131.0  132.0  133.0  134.0  135.0  136.0  137.0  138.0  139.0  
 140.0  141.0  142.0  143.0  144.0  145.0  146.0  147.0  148.0  149.0  
 150.0  151.0  152.0  153.0  154.0  155.0  156.0  157.0  158.0  159.0  
 160.0  161.0  162.0  163.0  164.0  165.0  166.0  167.0  168.0  169.0  
 170.0  171.0  172.0  173.0  174.0  175.0  176.0  177.0  178.0  179.0  
 180.0  
0.0    15.0   30.0   45.0   60.0   75.0   90.0   105.0  120.0  135.0  
 150.0  165.0  180.0  195.0  210.0  225.0  240.0  255.0  270.0  285.0  
 300.0  315.0  330.0  345.0  360.0  
211443.42 210234.22 207881.70 202823.50 189971.68 152148.70 124614.83 99943.40 71588.85 54001.60 
 33603.49 23555.13 14324.50 9578.58  4881.55  184.52   97.22    56.83    44.84    33.69    
 28.34    23.63    19.61    17.06    14.92    13.65    12.59    11.23    10.25    9.64     
 9.18     8.86     8.51     7.90     6.88     6.11     5.74     5.63     5.52     5.42     
 5.48     5.56     5.44     5.06     4.90     4.70     4.68     4.84     4.93     4.76     
 4.59     4.43     4.37     4.35     4.32     4.31     4.28     4.12     4.02     3.92     
 3.81     3.73     3.59     3.41     3.29     3.17     3.04     2.89     2.79     2.69     
 2.63     2.56     2.49     2.44     2.41     2.37     2.37     2.37     2.37     2.39     
 2.44     2.47     2.51     2.57     2.69     2.88     3.00     3.12     3.21     3.27     
 3.35     3.41     3.50     3.53     3.54     3.55     3.59     3.66     3.76     3.90     
 4.07     4.26     4.46     4.69     4.94     5.22     5.50     5.78     6.05     6.32     
 6.59     6.87     7.16     7.43     7.71     8.01     8.37     8.73     9.12     9.55     
 10.01    10.49    11.00    11.51    12.09    12.70    13.37    14.06    14.78    15.53    
 16.32    17.15    18.00    18.89    19.83    20.85    22.00    23.37    24.94    26.68    
 28.67    30.88    33.31    36.16    39.31    42.91    46.92    51.50    56.72    62.99    
 70.40    78.62    87.66    97.24    106.93   117.02   127.99   139.22   150.02   160.41   
 170.31   179.87   188.74   195.75   201.04   204.58   206.30   206.11   204.23   200.85   
 196.29   190.48   183.98   176.75   169.38   161.39   153.50   145.62   136.96   127.45   
 114.45   
211443.42 211145.49 209433.70 205853.52 199686.14 172567.45 138839.99 115418.61 91683.04 65017.86 
 51201.86 41134.95 31068.04 21001.13 10934.21 959.10   916.95   714.47   522.49   330.51   
 140.21   168.24   173.18   125.18   115.24   119.25   103.86   64.27    58.16    46.38    
 28.63    19.27    16.54    14.09    12.31    10.41    8.77     7.60     6.89     6.31     
 5.89     5.61     5.47     5.46     5.36     5.12     4.90     4.73     4.56     4.36     
 4.12     3.94     3.80     3.64     3.51     3.40     3.27     3.15     3.03     2.92     
 2.82     2.73     2.64     2.56     2.49     2.44     2.39     2.35     2.32     2.28     
 2.24     2.20     2.14     2.10     2.07     2.04     2.03     2.02     2.03     2.03     
 2.04     2.06     2.09     2.13     2.18     2.23     2.29     2.35     2.41     2.48     
 2.55     2.64     2.74     2.83     2.93     3.06     3.19     3.33     3.49     3.66     
 3.84     4.04     4.25     4.49     4.73     4.97     5.23     5.49     5.74     6.01     
 6.27     6.54     6.82     7.12     7.43     7.75     8.11     8.49     8.89     9.33     
 9.82     10.35    10.89    11.44    12.02    12.64    13.29    14.00    14.72    15.48    
 16.26    17.08    17.93    18.81    19.80    20.91    22.17    23.61    25.24    27.06    
 29.13    31.50    34.04    36.90    40.05    43.75    47.90    52.63    58.13    64.52    
 71.69    79.84    88.50    97.93    107.87   118.10   128.61   138.96   149.52   159.78   
 169.71   179.08   187.15   193.86   198.74   201.75   202.99   202.51   200.39   196.92   
 192.31   186.55   180.28   173.42   166.19   159.15   150.60   142.14   133.55   124.59   
 114.45   
211443.42 211637.01 210239.12 207889.47 203805.69 195431.55 163925.11 135527.17 112565.13 91240.75 
 65553.36 53084.62 35425.04 27260.54 16598.68 6997.75  4084.05  1238.27  1083.35  962.02   
 814.64   477.12   296.85   221.38   237.65   203.13   188.06   143.23   115.48   87.94    
 77.26    76.34    60.30    51.24    43.25    37.09    33.46    28.06    25.20    21.57    
 18.81    16.59    15.55    14.96    14.12    12.83    12.16    10.94    10.38    9.40     
 8.52     7.78     7.02     6.08     5.51     5.19     4.95     4.70     4.39     4.07     
 3.78     3.51     3.30     3.17     3.05     2.92     2.76     2.59     2.45     2.34     
 2.26     2.18     2.12     2.08     2.04     2.01     1.97     1.93     1.89     1.87     
 1.88     1.90     1.91     1.93     1.94     2.00     2.07     2.14     2.22     2.31     
 2.41     2.52     2.64     2.77     2.91     3.05     3.21     3.38     3.54     3.72     
 3.91     4.10     4.29     4.48     4.69     4.90     5.13     5.35     5.60     5.85     
 6.13     6.41     6.72     7.04     7.38     7.73     8.09     8.48     8.90     9.33     
 9.78     10.23    10.74    11.24    11.78    12.33    12.94    13.59    14.28    15.02    
 15.83    16.70    17.68    18.74    20.01    21.45    23.02    24.74    26.68    28.82    
 31.15    33.84    36.85    40.27    44.04    48.26    53.05    58.47    64.66    71.34    
 78.63    86.61    94.98    103.77   112.99   122.38   131.86   141.59   151.23   160.53   
 169.00   176.50   182.76   187.67   191.18   193.20   193.71   192.82   190.69   187.41   
 183.09   178.59   172.98   166.66   160.18   153.30   146.13   138.91   131.60   124.39   
 114.45   
211443.42 212348.16 211616.28 210296.96 208001.02 202917.67 195174.99 175569.75 146879.35 124809.45 
 103778.60 86989.07 66338.77 51309.69 42929.20 33435.61 23942.02 14511.45 11531.77 6543.47  
 1591.79  1402.36  995.98   690.28   472.68   363.80   274.80   186.20   141.30   115.22   
 97.23    84.44    74.68    66.58    60.05    53.99    48.54    43.65    38.84    35.01    
 31.50    28.61    26.09    23.46    20.86    17.64    15.51    14.00    12.88    11.92    
 11.04    10.30    9.58     8.93     8.22     7.67     7.19     6.79     6.39     6.04     
 5.72     5.43     5.12     4.83     4.57     4.36     4.17     3.98     3.77     3.57     
 3.36     3.14     2.94     2.76     2.59     2.44     2.30     2.16     2.05     1.95     
 1.83     1.74     1.74     1.75     1.79     1.85     1.92     2.00     2.09     2.19     
 2.28     2.40     2.51     2.63     2.77     2.91     3.05     3.20     3.36     3.53     
 3.69     3.87     4.05     4.25     4.47     4.69     4.91     5.15     5.40     5.65     
 5.91     6.20     6.49     6.79     7.11     7.44     7.77     8.11     8.48     8.86     
 9.27     9.72     10.20    10.71    11.23    11.81    12.44    13.15    13.93    14.78    
 15.75    16.83    18.02    19.31    20.73    22.34    24.13    26.09    28.27    30.68    
 33.46    36.53    39.95    43.75    48.03    52.80    58.00    63.67    69.80    76.51    
 83.64    91.18    98.94    107.30   115.80   124.33   132.81   140.81   148.70   155.84   
 162.29   167.91   172.61   176.37   178.98   180.56   181.07   180.56   179.48   176.78   
 173.39   169.64   165.61   161.05   156.14   150.89   145.31   139.63   134.12   128.60   
 114.45   
211443.42 212387.34 212175.64 210826.43 207912.38 202580.14 194883.04 187844.62 179437.73 168456.76 
 151519.69 127353.47 105874.26 93056.92 77297.55 63514.34 54194.80 41000.01 30645.29 23990.34 
 18600.41 11940.15 9711.48  7533.87  5019.10  4217.77  1984.28  1510.59  1055.07  599.55   
 425.55   315.80   236.85   190.57   158.30   134.24   114.64   95.09    81.59    69.92    
 60.21    52.24    45.46    40.34    35.79    31.96    28.94    26.23    23.99    22.00    
 19.97    18.21    16.56    14.72    12.93    11.27    10.26    9.58     8.96     8.44     
 8.05     7.77     7.51     7.24     7.00     6.80     6.59     6.41     6.25     6.08     
 5.93     5.76     5.58     5.35     5.09     4.81     4.46     4.08     3.70     3.29     
 2.91     2.47     2.05     1.93     1.92     1.95     2.01     2.08     2.17     2.25     
 2.35     2.45     2.56     2.68     2.82     2.95     3.10     3.26     3.43     3.60     
 3.78     3.98     4.18     4.39     4.61     4.84     5.07     5.32     5.57     5.83     
 6.09     6.36     6.64     6.93     7.23     7.56     7.88     8.23     8.60     8.99     
 9.41     9.84     10.35    10.85    11.44    12.06    12.81    13.58    14.44    15.39    
 16.40    17.50    18.73    20.11    21.66    23.34    25.29    27.46    29.93    32.71    
 35.86    39.50    43.45    47.81    52.57    57.68    63.19    69.17    75.50    82.10    
 89.00    96.10    103.21   110.51   117.85   124.98   131.84   138.43   144.64   150.30   
 155.42   159.82   163.56   166.57   168.89   170.39   171.14   171.72   171.09   169.69   
 167.67   164.89   161.82   158.41   154.91   151.04   147.02   142.77   138.38   133.54   
 114.45   
211443.42 212311.46 212437.91 211594.39 208716.42 203450.07 196488.24 189946.45 181718.39 173265.93 
 164392.72 155106.20 143369.75 131348.80 118299.31 105272.96 92118.89 78748.81 67299.17 55305.42 
 45717.55 36322.38 30774.46 25226.53 19704.56 17173.38 14772.73 12243.70 10509.14 8999.68  
 7890.55  6658.39  5273.45  4219.88  3388.38  2827.03  2266.83  1836.54  1474.35  1241.56  
 1048.55  849.73   695.44   564.89   448.59   360.61   304.73   248.85   193.09   149.73   
 118.03   94.86    77.16    64.08    54.44    46.42    40.73    35.94    31.98    28.84    
 26.14    24.09    22.50    21.14    19.81    18.77    17.59    16.51    15.39    14.37    
 13.88    13.61    13.41    13.25    13.08    12.91    12.70    12.49    12.25    11.76    
 10.71    9.05     6.86     4.39     1.70     1.59     1.64     1.70     1.76     1.83     
 1.89     1.97     2.06     2.16     2.26     2.38     2.50     2.63     2.78     2.94     
 3.10     3.27     3.45     3.63     3.84     4.05     4.26     4.49     4.73     4.98     
 5.24     5.52     5.78     6.07     6.38     6.70     7.02     7.35     7.70     8.08     
 8.50     8.98     9.48     10.00    10.56    11.17    11.85    12.61    13.42    14.30    
 15.31    16.40    17.59    18.91    20.44    22.15    24.13    26.40    28.91    31.80    
 35.13    38.81    42.85    47.27    52.04    57.24    62.75    68.49    74.45    80.72    
 87.05    93.53    99.80    106.32   112.72   118.94   125.15   130.97   136.79   142.17   
 147.23   151.86   156.09   160.00   163.28   166.09   168.72   170.26   171.06   171.24   
 170.72   169.58   167.70   165.24   162.30   159.08   155.73   151.89   147.63   142.78   
 114.45   
211443.42 211990.56 211999.79 211162.09 208513.37 203686.75 197114.80 190655.16 183092.97 174698.92 
 166006.97 156955.55 147035.46 136624.25 123938.19 109484.94 93755.90 79517.04 67052.71 56496.89 
 47405.40 40057.49 34195.44 29742.69 26177.90 23468.14 20763.58 18499.07 16749.24 15204.89 
 13762.07 12325.81 10954.30 9672.23  8461.07  7416.72  6446.83  5687.14  5101.57  4607.80  
 4224.42  3929.70  3682.25  3445.81  3251.57  3120.65  2982.09  2868.95  2734.97  2561.35  
 2387.74  2213.95  2026.74  1863.89  1711.82  1575.72  1443.71  1328.63  1220.98  1116.14  
 1025.27  936.41   854.99   778.11   708.10   644.16   584.39   527.04   475.27   425.14   
 380.51   339.97   302.88   268.57   239.09   209.61   180.20   157.06   138.20   120.77   
 104.95   90.91    78.83    68.26    58.31    33.20    24.20    18.36    11.77    7.05     
 3.02     1.50     1.27     1.20     1.13     1.06     1.00     0.93     0.86     0.87     
 0.87     0.87     0.88     0.88     0.88     0.89     0.91     0.93     0.96     0.99     
 1.01     1.04     1.07     1.11     1.14     1.17     1.20     1.24     1.29     1.33     
 1.38     1.43     1.50     1.56     1.64     1.73     1.82     1.93     2.05     2.19     
 2.33     2.51     2.70     2.92     3.16     3.44     3.76     4.15     4.58     5.10     
 5.65     6.26     6.94     7.70     8.51     9.42     10.40    11.40    12.49    13.62    
 14.75    15.93    17.15    18.44    19.74    21.08    22.52    24.03    25.69    27.39    
 29.17    31.07    33.04    35.21    37.50    40.06    42.80    46.35    49.60    53.78    
 58.16    63.02    68.48    74.41    80.67    87.13    93.76    100.59   106.99   113.40   
 114.45   
211443.42 212028.48 211889.99 210769.66 208096.35 203790.64 197449.40 190952.74 184003.32 176394.81 
 167477.86 158078.72 146931.74 135269.15 122411.79 109262.35 95676.59 82569.59 70189.57 59095.69 
 49376.16 41995.37 36423.75 32404.17 28970.12 26030.58 23837.37 21979.13 20163.41 18509.82 
 16959.37 15424.95 13886.89 12424.10 11067.41 9890.56  8715.19  7755.64  6963.09  6357.17  
 5852.23  5461.53  5137.53  4867.92  4640.41  4454.11  4273.88  4116.61  3969.09  3840.35  
 3714.78  3582.41  3440.44  3296.09  3133.40  2969.02  2802.71  2635.25  2473.89  2319.07  
 2175.38  2047.03  1927.59  1817.01  1709.57  1605.20  1503.92  1406.87  1312.14  1220.10  
 1134.58  1054.44  974.34   898.82   825.72   760.40   700.05   639.98   584.89   533.09   
 486.30   442.79   402.23   366.07   334.27   303.63   277.15   255.14   236.66   220.52   
 206.41   191.37   178.66   167.17   156.88   146.47   137.66   130.19   122.73   115.99   
 109.26   103.07   98.30    93.59    89.21    85.53    82.04    78.29    75.60    73.09    
 70.46    68.12    65.76    63.06    60.38    58.02    55.36    53.16    51.02    48.96    
 46.76    44.34    42.12    39.91    37.53    35.01    31.92    28.84    25.31    20.87    
 17.01    12.54    8.97     6.79     5.30     4.12     3.14     3.00     3.25     3.66     
 4.13     4.65     5.21     5.88     6.62     7.43     8.28     9.18     10.14    11.15    
 12.18    13.23    14.30    15.39    16.49    17.59    18.77    19.97    21.19    22.49    
 23.82    25.25    26.80    28.48    30.26    32.23    34.42    37.01    40.02    44.16    
 47.92    53.39    59.11    65.42    72.31    79.84    87.63    95.58    103.28   110.99   
 114.45   
211443.42 211903.98 211289.23 209771.27 207321.96 203830.00 198965.62 192989.19 185902.94 176884.53 
 166081.15 153281.75 139519.20 125303.08 111630.85 98942.66 86892.37 75053.86 64558.73 55603.98 
 48280.32 42317.20 37742.76 33972.76 30863.56 28252.32 25971.62 23792.79 21615.16 19536.45 
 17590.61 15685.02 13859.31 12165.13 10738.05 9470.23  8443.27  7594.63  6953.79  6486.21  
 6129.08  5825.26  5572.67  5353.42  5161.97  4990.72  4818.02  4655.65  4513.15  4376.58  
 4248.59  4124.80  3994.78  3863.11  3725.54  3577.84  3427.29  3264.95  3090.95  2916.36  
 2757.15  2618.72  2480.30  2342.00  2213.93  2084.90  1958.67  1835.26  1714.06  1599.39  
 1485.32  1372.45  1269.64  1172.57  1080.15  988.72   900.79   818.70   743.61   673.55   
 607.43   546.02   491.05   443.79   401.13   365.52   336.00   311.01   289.83   272.97   
 257.72   243.27   228.83   214.42   203.61   194.19   185.17   176.91   169.24   162.02   
 155.84   149.91   144.52   139.53   135.33   131.00   127.33   123.84   120.58   117.66   
 115.07   112.77   110.44   107.98   105.80   103.50   101.50   99.44    97.63    95.74    
 93.79    92.19    90.64    88.76    86.97    85.16    83.07    81.14    79.28    77.36    
 75.63    73.64    71.84    70.03    68.25    66.27    63.92    61.28    58.90    56.24    
 52.96    49.42    46.77    43.53    40.10    36.32    33.86    24.68    12.79    10.30    
 9.89     10.76    11.97    13.25    14.56    15.90    17.25    18.62    20.03    21.45    
 22.90    24.32    25.75    27.31    28.92    30.65    32.54    34.65    36.99    39.85    
 43.44    47.92    53.46    59.44    66.93    75.03    83.85    93.04    102.42   111.79   
 114.45   
211443.42 211274.81 209758.31 207483.14 204418.77 200532.45 195312.64 187429.58 176533.94 162133.71 
 145726.38 128945.47 113777.83 100346.13 89230.77 79273.25 70871.19 63379.93 56425.23 50554.68 
 45331.71 40975.11 36892.24 33171.71 29532.50 26168.01 22848.77 19742.02 17034.78 14671.53 
 12827.62 11680.72 10721.80 9764.52  9159.82  8633.51  8164.18  7756.44  7371.66  7029.97  
 6709.32  6385.30  6101.67  5848.95  5606.43  5390.17  5198.33  5011.07  4823.44  4641.37  
 4445.97  4285.60  4141.81  4006.51  3870.10  3725.35  3579.34  3438.07  3292.09  3152.02  
 3002.47  2857.21  2718.32  2582.27  2451.01  2315.42  2181.39  2048.16  1917.71  1784.12  
 1649.30  1534.33  1420.22  1304.22  1194.94  1091.97  989.06   892.78   807.06   729.76   
 658.08   593.03   532.70   479.68   435.40   398.12   365.42   337.81   316.05   299.51   
 284.38   268.79   254.69   242.57   231.88   222.98   215.13   208.40   202.62   197.53   
 192.79   188.30   184.47   181.02   177.87   174.90   172.06   169.56   167.10   164.90   
 162.71   160.55   158.23   156.20   154.05   152.24   150.26   148.37   146.47   144.71   
 142.77   140.45   138.08   135.62   133.42   131.44   129.46   126.74   124.01   121.29   
 118.73   116.29   113.56   110.96   108.21   105.46   102.94   100.13   97.26    94.56    
 91.90    88.74    86.48    84.27    81.84    79.57    75.65    72.16    68.86    65.99    
 62.43    56.73    52.44    50.46    48.37    33.82    20.96    19.77    20.80    21.40    
 21.73    23.11    24.95    26.92    28.97    31.16    33.20    35.30    37.69    40.31    
 43.33    46.91    51.26    56.61    62.81    70.13    79.05    88.90    99.52    109.90   
