IESNA:LM-63-2002
[TEST] 1
[TESTLAB] AOK
[TESTDATE] 2022-05-30
[ISSUEDATE] 2022-05-31 09:06:14
[NEARFIELD] 
[LAMPPOSITION] 0,0
[OTHER] EVERFINE GO-2000A_V1 SYSTEM
[MANUFAC] AOK
[LUMCAT] A
[LUMINAIRE] AOK-800WiSF-NV-S35-00-5070-15D-P
[LAMPCAT] B
[LAMP] 5050
[BALLAST] E
[BALLASTCAT] F
[OTHER] 
[OTHER] Gamma(deg)    Fz(lm)      Ft(lm)     %Lum    %Lamp
[OTHER]   0- 10     47257.30    47257.30    46.23    46.23
[OTHER]  10- 20     26934.84    74192.14    72.59    72.59
[OTHER]  20- 30      9908.87    84101.01    82.28    82.28
[OTHER]  30- 40      5203.19    89304.19    87.37    87.37
[OTHER]  40- 50      4242.08    93546.27    91.52    91.52
[OTHER]  50- 60      3473.33    97019.60    94.92    94.92
[OTHER]  60- 70      2493.47    99513.08    97.36    97.36
[OTHER]  70- 80      1340.63   100853.70    98.67    98.67
[OTHER]  80- 90       546.13   101399.83    99.20    99.20
[OTHER]  90-100       242.79   101642.63    99.44    99.44
[OTHER] 100-110       144.13   101786.76    99.58    99.58
[OTHER] 110-120       108.03   101894.79    99.69    99.69
[OTHER] 120-130        80.95   101975.74    99.77    99.77
[OTHER] 130-140        55.21   102030.94    99.82    99.82
[OTHER] 140-150        39.98   102070.92    99.86    99.86
[OTHER] 150-160        55.49   102126.41    99.91    99.91
[OTHER] 160-170        65.17   102191.58    99.98    99.98
[OTHER] 170-180        21.86   102213.44   100.00   100.00
[OTHER] 
TILT=NONE
1 1.0221e+005 1 181 25 1 2 0.150 0.200 0.000
1.000 1 786.724
0.0    1.0    2.0    3.0    4.0    5.0    6.0    7.0    8.0    9.0    
 10.0   11.0   12.0   13.0   14.0   15.0   16.0   17.0   18.0   19.0   
 20.0   21.0   22.0   23.0   24.0   25.0   26.0   27.0   28.0   29.0   
 30.0   31.0   32.0   33.0   34.0   35.0   36.0   37.0   38.0   39.0   
 40.0   41.0   42.0   43.0   44.0   45.0   46.0   47.0   48.0   49.0   
 50.0   51.0   52.0   53.0   54.0   55.0   56.0   57.0   58.0   59.0   
 60.0   61.0   62.0   63.0   64.0   65.0   66.0   67.0   68.0   69.0   
 70.0   71.0   72.0   73.0   74.0   75.0   76.0   77.0   78.0   79.0   
 80.0   81.0   82.0   83.0   84.0   85.0   86.0   87.0   88.0   89.0   
 90.0   91.0   92.0   93.0   94.0   95.0   96.0   97.0   98.0   99.0   
 100.0  101.0  102.0  103.0  104.0  105.0  106.0  107.0  108.0  109.0  
 110.0  111.0  112.0  113.0  114.0  115.0  116.0  117.0  118.0  119.0  
 120.0  121.0  122.0  123.0  124.0  125.0  126.0  127.0  128.0  129.0  
 130.0  131.0  132.0  133.0  134.0  135.0  136.0  137.0  138.0  139.0  
 140.0  141.0  142.0  143.0  144.0  145.0  146.0  147.0  148.0  149.0  
 150.0  151.0  152.0  153.0  154.0  155.0  156.0  157.0  158.0  159.0  
 160.0  161.0  162.0  163.0  164.0  165.0  166.0  167.0  168.0  169.0  
 170.0  171.0  172.0  173.0  174.0  175.0  176.0  177.0  178.0  179.0  
 180.0  
0.0    15.0   30.0   45.0   60.0   75.0   90.0   105.0  120.0  135.0  
 150.0  165.0  180.0  195.0  210.0  225.0  240.0  255.0  270.0  285.0  
 300.0  315.0  330.0  345.0  360.0  
738174.50 740215.69 739842.15 736756.13 706649.32 643900.95 589092.40 518967.59 444469.57 347428.79 
 259947.78 177990.00 112481.82 89681.49 67345.58 53906.34 43881.13 35418.85 23744.58 17205.51 
 11652.36 8424.14  5223.06  2792.73  1426.23  71.31    44.72    32.06    24.12    21.53    
 19.48    17.88    16.49    14.81    13.18    11.51    10.25    9.14     8.63     8.21     
 8.00     7.78     7.47     6.99     6.79     6.67     6.52     6.36     6.25     5.84     
 5.36     4.95     4.64     4.48     4.33     4.21     4.17     4.13     4.09     4.03     
 3.98     3.96     3.92     3.90     3.90     3.89     3.88     3.88     3.88     3.87     
 3.87     3.86     3.86     3.85     3.85     3.84     3.82     3.79     3.77     3.76     
 3.76     3.74     3.78     3.82     3.89     3.96     4.08     4.18     4.29     4.42     
 4.57     4.72     4.90     5.09     5.30     5.50     5.72     5.94     6.18     6.42     
 6.64     6.90     7.15     7.45     7.75     8.08     8.41     8.77     9.14     9.51     
 9.90     10.31    10.75    11.21    11.67    12.16    12.66    13.16    13.71    14.29    
 14.88    15.50    16.15    16.82    17.49    18.17    18.92    19.71    20.56    21.46    
 22.43    23.49    24.71    26.07    27.60    29.26    31.23    33.45    36.00    38.83    
 41.98    45.43    49.35    53.94    59.00    64.68    70.98    78.17    86.48    96.81    
 109.17   123.47   139.59   157.36   176.44   198.06   221.29   245.28   269.28   291.60   
 314.45   335.55   354.59   371.26   385.01   393.96   398.15   397.85   393.41   385.70   
 375.15   363.45   350.09   336.07   321.71   306.13   288.91   270.15   250.27   229.16   
 207.07   
738174.50 741670.24 741373.49 739211.63 732506.92 677295.31 613116.16 549490.28 465848.60 382245.55 
 302236.60 222227.66 142465.19 91984.95 71943.00 57375.30 46592.68 38554.59 31159.39 23764.19 
 16389.70 11723.22 8882.17  5333.38  3223.28  1128.88  792.89   456.91   123.98   107.10   
 76.03    58.82    65.27    40.17    28.24    22.41    19.74    17.88    16.90    16.29    
 15.56    14.39    13.21    11.95    10.88    10.03    9.26     8.65     8.20     7.87     
 7.44     6.94     6.33     5.58     5.18     4.91     4.86     5.02     5.05     5.04     
 4.91     4.80     4.71     4.63     4.51     4.46     4.42     4.38     4.30     4.20     
 4.10     4.00     3.89     3.81     3.72     3.64     3.56     3.49     3.44     3.37     
 3.35     3.35     3.36     3.41     3.49     3.57     3.66     3.76     3.86     3.99     
 4.13     4.29     4.46     4.64     4.84     5.06     5.29     5.51     5.76     6.01     
 6.27     6.54     6.84     7.12     7.44     7.75     8.09     8.43     8.79     9.16     
 9.54     9.91     10.34    10.78    11.22    11.72    12.22    12.72    13.23    13.75    
 14.32    14.91    15.54    16.16    16.81    17.50    18.20    18.97    19.79    20.66    
 21.64    22.69    23.87    25.17    26.66    28.32    30.25    32.40    34.83    37.59    
 40.73    44.22    48.08    52.39    57.23    62.73    68.89    76.06    84.30    94.06    
 105.56   120.17   134.81   152.62   172.17   193.39   216.04   238.92   262.83   285.91   
 308.60   330.23   350.58   368.82   382.95   393.16   398.59   399.48   396.30   389.50   
 379.96   368.66   356.28   342.85   328.67   313.18   295.94   277.65   257.32   236.88   
 207.07   
738174.50 741476.66 740835.58 737765.50 729656.77 710048.24 637314.43 559302.97 474720.74 378975.51 
 295575.36 213394.03 155833.92 122164.00 88751.99 55339.97 45029.86 37803.15 32378.23 27828.58 
 23932.41 17447.29 13270.87 10102.79 6945.73  4774.40  3228.64  1917.41  1356.08  804.32   
 252.56   161.47   134.86   111.31   87.78    70.77    61.72    50.70    39.49    33.02    
 28.20    24.35    21.68    19.70    18.48    17.32    16.28    15.34    14.46    13.65    
 13.17    12.65    12.07    11.43    10.56    9.40     8.42     7.68     7.14     6.95     
 6.74     6.51     6.30     6.12     5.98     5.83     5.69     5.57     5.45     5.32     
 5.17     4.99     4.80     4.62     4.45     4.26     4.07     3.88     3.70     3.56     
 3.44     3.34     3.30     3.30     3.37     3.47     3.58     3.70     3.84     3.98     
 4.15     4.33     4.51     4.72     4.94     5.16     5.41     5.65     5.91     6.19     
 6.48     6.77     7.07     7.39     7.70     8.04     8.39     8.74     9.12     9.51     
 9.89     10.31    10.74    11.18    11.62    12.09    12.57    13.04    13.54    14.03    
 14.55    15.10    15.68    16.29    16.93    17.61    18.33    19.11    19.96    20.89    
 21.88    22.94    24.19    25.58    27.10    28.74    30.63    32.77    35.14    37.80    
 40.69    43.99    47.66    51.84    56.49    61.89    68.15    75.30    83.70    93.81    
 105.64   119.26   134.74   152.05   172.15   193.50   215.91   239.93   263.96   288.21   
 311.63   333.35   353.00   370.22   383.51   392.81   398.16   399.26   396.54   390.27   
 381.61   370.94   359.11   345.75   331.34   315.27   297.66   278.43   257.54   236.36   
 207.07   
738174.50 741128.14 740605.32 735595.82 724803.02 701965.83 659645.20 580663.53 480402.51 390731.91 
 314128.19 237524.43 161236.72 122183.25 86794.61 68205.28 52306.35 42736.79 31695.89 27913.61 
 24131.33 20358.51 17776.09 14989.42 12386.12 10096.86 7396.91  5683.80  4396.22  3357.26  
 2635.02  1914.17  1375.44  882.31   436.55   336.70   236.86   137.61   104.73   85.96    
 72.91    61.68    53.45    46.76    40.88    36.21    32.28    28.53    26.01    23.94    
 21.73    20.53    19.65    19.12    18.21    17.22    16.33    15.59    14.99    14.44    
 13.56    12.18    9.94     8.39     7.90     7.59     7.32     7.08     6.89     6.71     
 6.50     6.29     6.07     5.83     5.57     5.28     4.97     4.63     4.28     3.94     
 3.63     3.37     3.18     3.12     3.15     3.24     3.36     3.50     3.64     3.79     
 3.96     4.15     4.35     4.56     4.79     5.03     5.28     5.55     5.82     6.11     
 6.41     6.71     7.03     7.36     7.70     8.06     8.42     8.79     9.17     9.54     
 9.93     10.34    10.76    11.17    11.61    12.08    12.57    13.07    13.57    14.08    
 14.60    15.17    15.75    16.35    16.95    17.60    18.28    19.02    19.82    20.68    
 21.62    22.66    23.80    25.03    26.36    27.91    29.63    31.51    33.59    35.91    
 38.65    41.67    45.15    49.11    53.67    59.15    65.44    72.82    81.54    91.90    
 104.07   119.09   134.15   152.54   172.23   193.57   216.57   239.92   264.40   288.13   
 310.90   332.37   351.39   368.01   381.03   390.39   395.99   397.76   395.76   390.41   
 382.26   372.31   360.30   347.22   331.90   314.17   295.21   275.47   254.77   233.96   
 207.07   
738174.50 739554.21 737052.51 728796.80 709092.78 670831.02 612385.77 543997.30 460172.73 373488.73 
 287610.89 210883.29 156138.71 119888.53 96281.37 72807.00 57393.43 46656.84 40070.64 32881.93 
 26968.80 23028.79 18649.11 15524.71 12171.07 10307.06 8459.07  7339.86  6569.93  5911.00  
 5427.11  4968.80  4520.48  4089.65  3540.54  3036.61  2527.93  2078.28  1688.19  1388.50  
 1136.39  884.86   633.34   438.06   291.68   206.62   152.62   129.43   106.57   83.71    
 71.05    61.75    56.12    51.68    45.49    40.99    37.34    33.96    30.60    27.79    
 26.13    24.45    22.89    21.77    20.62    19.56    18.40    17.00    14.87    11.19    
 9.71     9.03     8.59     8.27     7.97     7.57     7.18     6.74     6.26     5.73     
 5.12     4.51     3.98     3.57     3.48     3.51     3.64     3.77     3.92     4.07     
 4.25     4.44     4.63     4.85     5.09     5.32     5.57     5.83     6.10     6.40     
 6.69     6.99     7.31     7.64     7.97     8.32     8.68     9.05     9.44     9.83     
 10.23    10.64    11.07    11.51    11.97    12.44    12.92    13.40    13.88    14.38    
 14.88    15.40    15.96    16.53    17.12    17.72    18.38    19.09    19.85    20.63    
 21.48    22.42    23.45    24.60    25.90    27.32    28.91    30.73    32.84    35.19    
 37.91    40.97    44.58    48.82    53.81    59.68    66.70    74.91    84.65    96.33    
 109.75   124.79   141.45   159.95   180.68   202.50   224.93   248.41   271.91   294.90   
 316.10   335.23   352.07   366.93   378.68   386.83   391.79   392.64   390.34   384.78   
 376.58   365.38   352.19   337.50   321.32   303.50   285.50   267.01   248.04   229.20   
 207.07   
738174.50 738419.90 734189.89 722538.76 696927.93 648373.20 580542.20 503764.59 417532.40 331579.84 
 265431.00 199459.07 155017.68 119951.81 96198.86 78595.48 64629.97 53840.65 45688.67 39519.61 
 34084.84 29300.81 25151.80 21011.89 17957.84 15599.34 13719.47 12271.08 11161.95 10215.67 
 9364.58  8567.91  7905.24  7322.95  6778.41  6277.41  5831.95  5466.26  5119.21  4769.12  
 4440.33  4132.03  3848.25  3582.34  3315.39  3069.60  2827.89  2586.18  2344.60  2116.90  
 1889.52  1652.70  1408.16  1172.56  943.28   732.42   558.62   437.36   346.65   294.94   
 243.23   191.68   156.05   126.38   103.47   86.23    72.64    61.27    52.13    43.76    
 37.36    32.18    28.02    25.06    22.44    20.35    18.01    15.21    11.19    9.83     
 9.07     8.08     6.90     5.33     3.84     3.19     3.23     3.32     3.43     3.54     
 3.67     3.81     3.98     4.17     4.37     4.57     4.81     5.05     5.30     5.57     
 5.81     6.08     6.36     6.66     6.97     7.30     7.63     7.98     8.34     8.73     
 9.13     9.54     9.97     10.42    10.87    11.32    11.80    12.30    12.80    13.30    
 13.82    14.36    14.93    15.50    16.09    16.75    17.44    18.13    18.90    19.72    
 20.61    21.54    22.57    23.66    24.84    26.19    27.81    29.55    31.50    33.80    
 36.34    39.16    42.78    47.03    52.14    58.39    65.77    74.64    85.20    97.51    
 111.50   128.31   145.54   165.09   185.64   207.13   229.71   251.72   274.25   295.46   
 315.60   333.71   349.61   363.30   374.17   382.33   387.07   388.72   387.20   382.72   
 375.91   366.44   354.20   339.46   324.06   307.78   290.70   273.37   255.24   237.81   
 207.07   
738174.50 738212.98 734647.46 725677.04 703779.00 658450.72 590253.61 512816.05 424424.97 336548.54 
 268530.50 200768.57 156302.08 121687.52 96639.88 79054.68 65672.25 54844.26 46271.64 39953.34 
 34721.10 30339.87 26883.76 23427.66 19984.71 17692.74 15884.31 14488.59 13420.31 12539.43 
 11742.30 11029.30 10412.87 9820.19  9307.07  8852.15  8450.85  8082.58  7739.16  7430.69  
 7144.24  6885.12  6650.01  6398.88  6163.31  5906.82  5649.88  5387.76  5121.51  4872.52  
 4649.75  4443.72  4253.55  4071.42  3894.45  3730.88  3564.55  3399.00  3231.85  3063.10  
 2892.88  2731.30  2567.22  2403.29  2250.88  2095.42  1940.66  1791.68  1642.63  1498.07  
 1353.21  1219.06  1096.24  974.45   859.34   746.70   641.99   548.85   465.00   391.28   
 322.60   268.64   214.68   160.91   123.18   88.74    64.39    38.52    13.80    5.31     
 3.40     2.81     2.62     2.44     2.43     2.38     2.30     1.66     1.67     1.69     
 1.70     1.71     1.73     1.73     1.80     1.87     1.97     2.05     2.05     2.14     
 2.26     2.24     2.33     2.49     2.52     2.62     2.75     2.92     3.14     3.22     
 3.31     3.39     3.49     3.60     3.72     3.86     4.00     4.17     4.33     4.50     
 4.68     4.88     5.12     5.35     5.59     5.90     6.23     6.63     7.11     7.66     
 8.28     9.01     9.93     11.08    12.40    14.01    15.87    17.97    20.41    23.06    
 25.95    29.02    32.32    35.88    39.74    43.85    48.20    52.74    57.56    62.40    
 67.27    72.27    77.32    82.41    87.57    92.91    98.42    104.12   109.79   116.21   
 121.99   128.23   133.84   139.26   146.11   154.09   163.24   173.28   184.60   197.28   
 207.07   
738174.50 736938.65 731644.68 719075.37 691177.53 640233.00 564523.60 479075.26 390682.12 309182.77 
 241395.52 189180.99 150559.71 121483.29 101443.42 81474.10 68194.23 58288.96 50330.05 43873.84 
 38275.49 33228.06 28670.14 24734.16 21350.87 18754.37 16852.69 15527.36 14530.58 13751.80 
 13100.08 12492.52 11947.88 11531.91 11117.06 10702.20 10383.29 10099.65 9831.68  9600.30  
 9387.09  9191.87  9015.84  8821.75  8593.44  8363.23  8092.98  7828.34  7579.22  7338.15  
 7103.33  6886.53  6687.32  6483.13  6287.60  6090.97  5905.03  5712.43  5520.58  5317.23  
 5115.78  4922.00  4733.70  4543.47  4338.97  4137.50  3944.77  3762.43  3574.23  3374.48  
 3183.76  2999.45  2814.12  2624.71  2444.36  2271.23  2105.30  1942.20  1790.23  1642.71  
 1507.11  1388.28  1271.95  1165.71  1059.56  953.40   862.58   781.68   711.23   649.83   
 598.20   546.82   498.30   453.09   410.47   370.97   336.66   305.61   278.33   252.67   
 230.78   207.85   190.93   175.30   160.19   145.86   132.89   120.56   108.23   96.81    
 86.15    76.65    68.37    60.20    52.47    45.12    38.07    31.50    25.64    21.43    
 15.63    6.54     3.39     3.12     3.18     3.30     3.46     3.59     3.76     3.92     
 4.14     4.63     5.07     5.53     5.98     6.94     7.47     7.42     7.20     7.33     
 7.87     8.48     9.24     10.13    11.87    13.28    14.82    16.71    19.03    21.49    
 24.28    27.32    30.45    33.02    36.63    40.55    44.77    49.07    53.41    57.84    
 62.28    66.82    71.30    75.93    80.61    85.47    90.40    95.37    100.47   106.02   
 110.70   116.30   122.22   128.73   136.11   144.48   153.80   164.83   177.26   191.62   
 207.07   
738174.50 736468.38 730691.84 717662.86 689440.08 639066.99 566625.84 478852.38 392320.90 312835.74 
 255757.83 198896.68 161746.28 132497.06 110127.39 93470.47 80660.81 70208.90 61641.46 54269.97 
 47818.95 41917.57 36590.46 31941.67 27842.69 24663.18 21494.78 19260.61 17545.82 16196.02 
 15144.43 14277.14 13563.04 13013.51 12581.19 12212.83 11895.50 11606.97 11342.58 11078.45 
 10835.08 10606.25 10384.75 10165.88 9970.03  9777.43  9555.20  9305.72  9029.27  8748.83  
 8499.67  8283.24  8057.79  7838.02  7612.94  7392.75  7184.89  6981.42  6779.71  6559.31  
 6331.89  6079.96  5831.23  5585.47  5354.86  5113.77  4879.52  4653.50  4418.69  4178.10  
 3916.68  3669.18  3427.06  3203.61  2986.15  2773.16  2560.18  2347.47  2160.95  1983.42  
 1808.77  1650.75  1508.42  1382.96  1268.65  1163.62  1067.19  983.67   910.47   844.19   
 791.12   735.66   677.18   622.21   572.44   530.01   491.59   457.39   426.71   399.26   
 373.35   352.81   335.50   320.16   306.03   293.63   282.38   272.30   262.87   254.88   
 247.86   241.48   235.11   228.73   222.14   215.44   208.94   202.11   195.05   188.27   
 181.26   173.70   166.21   158.31   149.85   141.59   132.71   123.34   114.68   104.39   
 92.53    78.75    59.05    36.26    21.14    15.27    14.30    11.36    5.26     4.59     
 4.95     5.42     6.01     6.78     7.77     9.05     10.55    12.39    14.54    17.31    
 20.44    23.67    27.72    37.77    43.21    36.74    40.93    45.34    49.92    54.65    
 59.41    64.07    68.57    73.08    77.37    81.66    85.79    89.84    93.83    98.00    
 101.93   106.55   111.91   118.15   125.16   133.23   142.94   154.17   166.42   181.14   
 207.07   
738174.50 734877.29 727262.69 710765.35 677795.98 622819.76 547321.98 460710.25 376113.98 300767.13 
 241257.49 196269.20 162724.36 137333.52 117395.43 103332.55 89314.15 79706.22 71781.61 64147.50 
 57520.59 51413.19 45557.69 40167.76 35473.08 31373.44 28036.99 25178.01 22753.95 20608.75 
 18807.53 17178.28 15852.81 14844.15 14117.04 13561.21 13093.20 12676.97 12297.55 11960.50 
 11676.51 11393.04 11109.56 10877.84 10663.31 10436.18 10188.63 9945.30  9739.85  9508.00  
 9242.79  8967.87  8710.75  8462.55  8234.33  7998.33  7755.10  7498.66  7223.40  6935.24  
 6651.76  6384.59  6118.79  5845.46  5575.63  5317.77  5065.59  4812.27  4551.77  4276.87  
 3997.48  3742.75  3498.84  3250.37  3005.44  2772.07  2547.16  2317.96  2116.17  1928.56  
 1758.59  1602.71  1450.52  1312.29  1197.23  1101.56  1006.08  924.39   852.08   796.09   
 745.90   688.30   631.02   582.54   539.84   502.98   471.42   445.73   423.05   403.10   
 385.92   371.93   359.68   348.78   338.92   329.45   321.20   313.80   306.97   300.31   
 293.96   288.33   282.37   277.17   271.94   266.59   261.70   257.30   253.02   248.52   
 244.71   240.78   236.68   232.70   228.21   223.45   217.89   212.57   207.39   201.95   
 196.80   190.50   182.01   173.71   165.45   157.24   148.47   139.09   129.16   117.52   
 105.88   91.94    71.14    25.67    12.99    10.96    10.94    10.90    12.69    15.09    
 17.79    20.81    24.16    27.88    31.82    35.97    40.65    45.58    50.86    56.95    
 73.12    69.18    72.45    78.44    84.15    89.64    94.35    98.51    102.13   105.27   
