IESNA:LM-63-2002
[TEST] 1
[TESTLAB] AOK
[TESTDATE] 2022-05-14
[ISSUEDATE] 2022-05-16 08:09:09
[NEARFIELD] 
[LAMPPOSITION] 0,0
[OTHER] EVERFINE GO-2000A_V1 SYSTEM
[MANUFAC] AOK
[LUMCAT] A
[LUMINAIRE] AOK-400WiSF-NVY-S5-00-5070-3585D-P
[LAMPCAT] B
[LAMP] 5050
[BALLAST] E
[BALLASTCAT] F
[OTHER] 
[OTHER] Gamma(deg)    Fz(lm)      Ft(lm)     %Lum    %Lamp
[OTHER]   0- 10      4163.06     4163.06     7.34     7.34
[OTHER]  10- 20      9759.26    13922.31    24.56    24.56
[OTHER]  20- 30     11527.54    25449.86    44.90    44.90
[OTHER]  30- 40     10947.37    36397.23    64.21    64.21
[OTHER]  40- 50      8960.92    45358.15    80.02    80.02
[OTHER]  50- 60      6299.04    51657.19    91.14    91.14
[OTHER]  60- 70      3450.26    55107.45    97.22    97.22
[OTHER]  70- 80      1271.81    56379.26    99.47    99.47
[OTHER]  80- 90       187.14    56566.40    99.80    99.80
[OTHER]  90-100         3.19    56569.59    99.80    99.80
[OTHER] 100-110         4.84    56574.43    99.81    99.81
[OTHER] 110-120         8.47    56582.90    99.83    99.83
[OTHER] 120-130        13.05    56595.95    99.85    99.85
[OTHER] 130-140        17.81    56613.76    99.88    99.88
[OTHER] 140-150        21.52    56635.28    99.92    99.92
[OTHER] 150-160        22.24    56657.52    99.96    99.96
[OTHER] 160-170        17.67    56675.19    99.99    99.99
[OTHER] 170-180         6.86    56682.05   100.00   100.00
[OTHER] 
TILT=NONE
1 56682 1 181 25 1 2 0.150 0.200 0.000
1.000 1 383.832
0.0    1.0    2.0    3.0    4.0    5.0    6.0    7.0    8.0    9.0    
 10.0   11.0   12.0   13.0   14.0   15.0   16.0   17.0   18.0   19.0   
 20.0   21.0   22.0   23.0   24.0   25.0   26.0   27.0   28.0   29.0   
 30.0   31.0   32.0   33.0   34.0   35.0   36.0   37.0   38.0   39.0   
 40.0   41.0   42.0   43.0   44.0   45.0   46.0   47.0   48.0   49.0   
 50.0   51.0   52.0   53.0   54.0   55.0   56.0   57.0   58.0   59.0   
 60.0   61.0   62.0   63.0   64.0   65.0   66.0   67.0   68.0   69.0   
 70.0   71.0   72.0   73.0   74.0   75.0   76.0   77.0   78.0   79.0   
 80.0   81.0   82.0   83.0   84.0   85.0   86.0   87.0   88.0   89.0   
 90.0   91.0   92.0   93.0   94.0   95.0   96.0   97.0   98.0   99.0   
 100.0  101.0  102.0  103.0  104.0  105.0  106.0  107.0  108.0  109.0  
 110.0  111.0  112.0  113.0  114.0  115.0  116.0  117.0  118.0  119.0  
 120.0  121.0  122.0  123.0  124.0  125.0  126.0  127.0  128.0  129.0  
 130.0  131.0  132.0  133.0  134.0  135.0  136.0  137.0  138.0  139.0  
 140.0  141.0  142.0  143.0  144.0  145.0  146.0  147.0  148.0  149.0  
 150.0  151.0  152.0  153.0  154.0  155.0  156.0  157.0  158.0  159.0  
 160.0  161.0  162.0  163.0  164.0  165.0  166.0  167.0  168.0  169.0  
 170.0  171.0  172.0  173.0  174.0  175.0  176.0  177.0  178.0  179.0  
 180.0  
0.0    15.0   30.0   45.0   60.0   75.0   90.0   105.0  120.0  135.0  
 150.0  165.0  180.0  195.0  210.0  225.0  240.0  255.0  270.0  285.0  
 300.0  315.0  330.0  345.0  360.0  
46378.75 47858.05 49021.58 49623.58 49538.62 48265.94 46013.93 44275.20 42776.18 41564.65 
 40483.05 39319.86 37934.17 36154.24 34144.42 32211.36 30647.72 29296.90 28015.91 27344.39 
 27024.23 26846.58 26579.60 26275.96 25912.57 25485.20 24974.01 24340.92 23479.72 22398.32 
 21341.86 20392.46 19468.07 18559.78 17620.03 16648.27 15569.29 14501.04 13585.87 12914.68 
 12495.49 12162.42 12087.31 11672.65 11253.93 10880.31 10465.50 10028.95 9558.46  9074.78  
 8601.48  8115.79  7620.32  7130.75  6642.46  6158.18  5652.30  5078.80  4467.23  3990.88  
 3643.22  3311.03  2989.30  2690.53  2428.90  2204.20  1991.55  1798.29  1582.39  1324.51  
 1176.85  1030.37  883.89   758.26   638.82   504.00   414.29   338.30   261.03   204.04   
 154.32   121.90   89.67    57.44    37.79    21.88    7.83     3.71     3.36     2.91     
 2.60     2.52     2.49     2.61     2.73     2.87     3.03     3.20     3.37     3.54     
 3.72     3.91     4.10     4.29     4.48     4.69     4.89     5.08     5.28     5.48     
 5.68     5.88     6.08     6.29     6.49     6.68     6.88     7.07     7.26     7.45     
 7.63     7.81     7.99     8.16     8.33     8.51     8.70     8.91     9.14     9.41     
 9.70     10.02    10.39    10.81    11.29    11.81    12.40    13.08    13.81    14.64    
 15.59    16.65    17.80    19.06    20.47    22.01    23.76    25.69    27.74    29.79    
 31.91    34.20    36.63    39.07    41.55    44.07    46.65    49.27    51.95    54.67    
 57.36    60.08    62.75    65.35    67.78    70.00    72.05    73.88    75.44    76.78    
 77.94    78.88    79.62    80.14    80.47    80.61    80.49    80.09    79.48    78.64    
 77.12    
46378.75 47882.92 49029.08 49789.93 49790.90 49017.43 46798.70 44980.88 43451.10 42102.90 
 41045.53 39947.46 38746.63 37176.51 35306.76 33347.16 31581.39 30100.20 28815.83 27713.49 
 27140.98 26860.37 26670.84 26405.38 26115.54 25773.41 25373.50 24754.73 24135.95 23512.95 
 22464.05 21395.20 20419.84 19505.21 18602.28 17647.89 16724.94 15792.71 14861.93 13915.08 
 13104.20 12578.97 12187.12 11863.98 11535.85 11191.29 10815.27 10397.28 9938.59  9445.51  
 8945.26  8456.01  7976.02  7495.02  7026.89  6563.55  6090.76  5599.53  5030.39  4422.80  
 3943.15  3587.56  3243.48  2922.45  2646.21  2370.33  2141.02  1927.24  1732.40  1513.20  
 1265.16  1099.62  960.13   831.10   709.26   585.53   454.63   374.52   304.89   235.27   
 165.88   123.16   89.73    62.60    41.23    24.40    9.65     3.71     3.41     3.25     
 3.07     2.95     2.82     2.81     2.82     2.89     3.02     3.20     3.37     3.54     
 3.72     3.91     4.09     4.28     4.48     4.68     4.88     5.08     5.28     5.48     
 5.67     5.88     6.09     6.28     6.48     6.68     6.88     7.07     7.25     7.44     
 7.61     7.79     7.98     8.16     8.34     8.52     8.73     8.97     9.22     9.51     
 9.83     10.20    10.63    11.13    11.66    12.25    12.92    13.67    14.46    15.36    
 16.38    17.51    18.71    20.05    21.51    23.14    24.90    26.79    28.77    30.91    
 33.10    35.35    37.61    39.95    42.31    44.68    47.13    49.56    52.11    54.66    
 57.18    59.67    62.09    64.44    66.58    68.54    70.34    71.98    73.42    74.70    
 75.77    76.72    77.48    77.99    78.31    78.39    78.22    77.96    77.30    76.44    
 77.12    
46378.75 47621.21 48639.90 49305.21 49315.94 48891.03 47138.25 45258.48 43747.48 42382.76 
 41228.53 40250.10 39218.49 38095.58 36750.86 35115.83 33379.95 31665.91 30152.92 28847.17 
 27740.84 26861.40 26299.82 26013.80 25789.96 25535.23 25264.38 24935.09 24620.05 24265.84 
 23875.70 23359.11 22565.27 21705.14 20816.69 19923.99 19007.59 18122.49 17232.25 16343.47 
 15525.56 14830.58 14247.37 13641.86 13028.19 12449.90 11970.55 11497.07 11023.65 10525.74 
 10026.53 9490.04  8943.11  8390.07  7840.95  7296.67  6783.20  6276.48  5771.43  5277.98  
 4806.66  4296.55  3760.73  3345.10  3027.56  2711.61  2424.81  2165.12  1936.10  1724.60  
 1530.88  1296.57  1123.08  950.23   777.37   660.41   544.82   413.55   331.34   251.62   
 188.50   127.28   94.48    61.98    40.10    23.68    9.24     3.87     3.53     3.36     
 3.25     3.03     2.93     2.87     2.83     2.96     3.12     3.30     3.47     3.66     
 3.85     4.03     4.22     4.42     4.61     4.81     5.01     5.21     5.42     5.61     
 5.82     6.01     6.22     6.41     6.60     6.79     6.98     7.17     7.36     7.55     
 7.74     7.94     8.16     8.40     8.66     8.94     9.27     9.62     10.02    10.45    
 10.93    11.44    12.03    12.70    13.42    14.22    15.11    16.10    17.18    18.29    
 19.54    20.91    22.40    24.00    25.68    27.47    29.31    31.17    33.09    35.07    
 37.07    39.07    41.10    43.18    45.38    47.57    49.74    51.87    53.98    56.15    
 58.21    60.15    61.93    63.71    65.38    66.87    68.25    69.52    70.63    71.64    
 72.52    73.30    73.92    75.02    75.21    75.22    75.05    74.54    74.09    73.57    
 77.12    
46378.75 47472.42 48311.35 49040.37 49447.85 49373.63 49057.37 47887.66 46134.85 44664.40 
 43365.52 42182.12 41051.60 40076.02 39132.06 38175.58 37150.79 36025.15 34712.79 33344.34 
 31920.71 30517.52 29191.08 28032.32 27001.44 26082.53 25273.20 24743.60 24460.89 24307.88 
 24154.75 23986.69 23790.72 23575.86 23314.08 23068.83 22780.21 22404.80 21854.07 21201.83 
 20561.35 19932.75 19267.23 18521.71 17682.58 16810.49 15940.03 15120.89 14377.14 13705.24 
 13068.24 12468.60 11911.73 11415.30 10876.81 10329.70 9761.67  9192.69  8606.15  8035.66  
 7461.17  6889.14  6322.34  5756.62  5218.26  4707.93  4213.21  3656.83  3138.05  2736.99  
 2336.73  2025.39  1750.44  1499.95  1269.53  1009.88  783.83   639.51   517.42   401.17   
 314.35   227.54   141.05   89.79    59.49    35.43    18.26    5.81     3.67     3.53     
 3.35     3.11     2.90     2.72     2.79     2.96     3.14     3.33     3.51     3.71     
 3.90     4.10     4.30     4.51     4.71     4.92     5.12     5.32     5.54     5.73     
 5.93     6.14     6.35     6.55     6.75     6.98     7.22     7.48     7.75     8.04     
 8.37     8.74     9.15     9.58     10.06    10.58    11.14    11.77    12.45    13.19    
 13.99    14.89    15.90    16.96    18.07    19.27    20.56    21.91    23.29    24.72    
 26.23    27.76    29.29    30.86    32.46    34.10    35.76    37.46    39.16    40.92    
 42.70    44.49    46.24    48.05    49.82    51.54    53.24    54.83    56.37    57.85    
 59.28    60.65    61.93    63.18    64.34    65.44    66.46    67.43    68.37    69.26    
 70.53    71.48    72.26    72.65    72.90    72.97    72.75    72.39    72.18    72.00    
 77.12    
46378.75 47159.18 47764.44 48320.36 48788.78 49124.84 49140.87 48994.98 48728.70 48093.75 
 46960.69 45608.53 44352.72 43208.70 42164.73 41102.04 40065.69 39050.48 38114.46 37214.96 
 36383.01 35528.18 34669.12 33829.77 32978.78 32092.09 31173.37 30268.65 29353.73 28415.00 
 27495.71 26568.77 25665.43 24770.26 23918.65 23103.11 22323.53 21579.93 20897.88 20238.28 
 19606.59 19022.60 18494.48 18006.52 17550.63 17103.00 16655.47 16184.21 15661.30 15066.66 
 14465.00 13857.70 13258.22 12670.69 12091.19 11470.78 10849.88 10211.26 9579.26  8949.74  
 8374.76  7862.70  7388.68  6925.14  6468.93  5998.40  5526.49  5050.57  4604.24  4169.86  
 3741.23  3331.09  2943.85  2535.80  2133.48  1748.04  1455.27  1197.24  978.23   759.67   
 521.71   378.29   261.32   160.55   116.67   73.51    30.36    12.40    4.30     3.86     
 3.30     2.96     2.76     2.85     3.04     3.23     3.43     3.64     3.85     4.07     
 4.30     4.54     4.77     5.01     5.28     5.53     5.81     6.11     6.43     6.75     
 7.11     7.49     7.89     8.33     8.79     9.28     9.79     10.36    11.00    11.68    
 12.41    13.18    14.02    14.90    15.81    16.78    17.81    18.91    20.05    21.23    
 22.43    23.72    25.02    26.35    27.70    29.07    30.48    31.93    33.37    34.81    
 36.24    37.67    39.13    40.60    42.05    43.50    44.93    46.29    47.64    48.97    
 50.27    51.50    52.67    53.83    54.99    56.08    57.10    58.11    59.09    60.03    
 60.92    61.81    62.67    63.54    64.38    65.17    65.95    66.69    68.39    69.12    
 69.68    70.19    70.48    70.55    70.61    70.63    70.77    70.92    70.99    70.77    
 77.12    
46378.75 46814.95 47182.87 47466.91 47699.18 47915.30 48103.16 48242.69 48310.45 48354.13 
 48345.10 48207.94 47958.99 47650.06 47297.22 46919.66 46445.73 45855.38 45128.99 44292.87 
 43330.82 42325.19 41339.93 40414.48 39513.09 38635.49 37753.92 36872.73 36031.23 35189.33 
 34305.81 33372.11 32434.35 31484.73 30542.99 29593.75 28696.22 27806.82 26937.39 26080.28 
 25267.30 24501.62 23735.76 22946.73 22139.05 21317.81 20514.10 19687.31 18846.88 17966.62 
 17089.01 16236.60 15369.85 14515.87 13716.74 12959.04 12240.64 11548.23 10879.59 10212.03 
 9574.73  8945.15  8321.87  7685.69  7086.72  6513.69  5960.36  5401.06  4850.23  4300.80  
 3774.25  3284.75  2883.39  2482.04  2081.62  1776.25  1485.75  1223.81  983.23   765.75   
 591.21   448.72   351.52   254.32   157.47   97.24    57.11    31.21    14.82    4.40     
 3.85     2.85     2.98     3.22     3.49     3.78     4.09     4.43     4.78     5.18     
 5.56     5.99     6.48     6.98     7.50     8.04     8.61     9.23     9.87     10.54    
 11.24    11.99    12.80    13.65    14.51    15.41    16.39    17.38    18.38    19.43    
 20.53    21.68    22.87    24.06    25.25    26.44    27.71    28.98    30.25    31.53    
 32.81    34.10    35.38    36.66    37.94    39.19    40.43    41.68    42.85    44.02    
 45.17    46.28    47.38    48.45    49.49    50.53    51.54    52.55    53.52    54.51    
 55.49    56.46    57.39    58.34    59.29    60.20    61.08    61.93    62.77    63.58    
 64.37    65.15    65.88    66.61    67.29    67.94    68.55    69.76    70.09    70.48    
 70.73    70.87    71.13    71.46    71.65    71.79    71.81    71.64    71.37    70.98    
 77.12    
46378.75 46362.76 46330.76 46267.17 46175.92 46061.00 45926.35 45775.84 45605.97 45408.12 
 45198.37 44972.83 44735.47 44490.11 44229.11 43967.88 43687.11 43406.00 43097.46 42781.76 
 42445.34 42081.19 41685.44 41262.00 40810.87 40332.05 39825.41 39279.07 38681.70 38063.62 
 37353.07 36573.50 35742.72 34880.51 34006.13 33092.24 32143.11 31190.35 30261.05 29331.59 
 28390.26 27435.51 26443.09 25465.78 24436.57 23407.78 22416.09 21398.79 20360.45 19318.60 
 18248.66 17148.50 16007.47 14890.54 13822.35 12885.91 12027.92 11235.18 10461.93 9694.83  
 8944.82  8233.22  7553.00  6880.08  6252.45  5669.01  5110.56  4588.57  4100.38  3656.79  
 3230.68  2876.10  2521.51  2167.50  1860.24  1580.01  1323.99  1090.04  883.26   712.78   
 565.85   441.44   337.55   259.20   181.12   124.40   79.45    46.63    23.73    9.54     
 1.20     1.23     1.24     1.29     1.41     1.53     1.68     1.84     2.03     2.24     
 2.47     2.72     3.02     3.33     3.66     4.03     4.41     4.83     5.30     5.79     
 6.29     6.80     7.36     7.94     8.55     9.18     9.82     10.50    11.20    11.92    
 12.66    13.42    14.18    14.97    15.79    16.64    17.51    18.37    19.26    20.14    
 21.06    21.96    22.90    23.85    24.80    25.75    26.73    27.72    28.69    29.66    
 30.65    31.64    32.62    33.63    34.64    35.67    36.71    37.73    38.76    39.81    
 40.87    41.90    42.96    44.05    45.17    46.28    47.45    48.67    49.92    51.18    
 52.45    53.71    54.97    56.28    57.56    58.81    59.98    61.33    62.98    64.37    
 65.43    66.45    67.44    68.35    69.19    69.94    70.67    71.35    71.97    72.51    
 77.12    
46378.75 45907.76 45424.41 44921.31 44374.79 43805.89 43207.82 42613.39 42003.28 41381.25 
 40766.97 40195.98 39645.01 39145.30 38665.67 38233.37 37822.24 37441.52 37088.58 36704.50 
 36288.71 35845.14 35377.75 34855.15 34288.84 33667.14 32978.15 32239.53 31423.99 30537.05 
 29614.09 28576.93 27452.31 26303.35 25138.46 23969.52 22784.81 21564.59 20370.95 19213.49 
 18123.11 17025.53 15951.44 14912.90 13949.32 12986.40 12054.91 11200.18 10346.06 9577.73  
 8866.23  8209.69  7618.14  7063.44  6534.15  6021.02  5535.11  5084.49  4670.43  4275.80  
 3929.95  3636.71  3386.03  3164.80  2955.80  2765.22  2593.52  2430.75  2268.05  2100.97  
 1939.84  1781.94  1620.52  1459.82  1301.92  1186.63  1043.67  900.45   769.60   648.42   
 537.35   437.83   348.78   270.33   199.25   140.61   99.17    57.89    35.40    19.63    
 2.92     1.93     1.45     1.52     1.64     1.79     1.95     2.12     2.30     2.50     
 2.71     2.97     3.24     3.55     3.90     4.28     4.68     5.10     5.53     6.01     
 6.50     7.04     7.59     8.20     8.84     9.48     10.14    10.82    11.54    12.30    
 13.06    13.83    14.65    15.50    16.35    17.18    18.05    18.94    19.83    20.74    
 21.63    22.55    23.46    24.40    25.35    26.28    27.23    28.16    29.10    30.03    
 30.98    31.91    32.86    33.81    34.79    35.77    36.73    37.69    38.67    39.67    
 40.67    41.67    42.69    43.75    44.86    45.95    47.08    48.27    49.47    50.69    
 51.94    53.23    54.51    55.85    57.22    58.59    59.93    61.20    62.48    64.26    
 65.94    67.15    68.30    69.35    70.30    71.21    72.10    72.96    73.74    74.44    
 77.12    
46378.75 45499.01 44611.11 43695.24 42732.52 41782.95 40948.61 40252.85 39684.98 39230.18 
 38857.75 38489.21 38115.91 37666.79 37098.88 36419.80 35613.45 34644.71 33522.05 32296.35 
 30999.82 29624.06 28172.96 26644.02 25163.28 23682.54 22202.14 20751.23 19366.18 18044.59 
 16784.92 15583.83 14496.15 13494.64 12595.01 11746.02 10948.72 10191.37 9488.38  8816.36  
 8177.48  7555.57  6953.74  6381.41  5817.28  5238.90  4702.75  4248.15  3908.37  3675.57  
 3524.61  3411.88  3310.74  3216.63  3124.75  3005.31  2910.59  2822.68  2740.34  2658.98  
 2577.61  2496.20  2411.26  2322.76  2222.42  2120.04  2020.34  1919.80  1812.45  1711.64  
 1610.81  1512.05  1417.83  1314.49  1206.40  1096.44  988.78   874.84   767.06   658.61   
 559.44   470.88   387.77   316.37   244.97   173.88   127.87   83.31    56.09    38.22    
 11.25    2.08     1.98     1.89     1.73     1.63     1.71     1.86     2.02     2.20     
 2.39     2.58     2.79     3.03     3.31     3.62     3.97     4.33     4.72     5.13     
 5.58     6.07     6.57     7.10     7.66     8.24     8.83     9.46     10.10    10.78    
 11.50    12.24    13.00    13.75    14.53    15.33    16.14    16.99    17.82    18.68    
 19.56    20.46    21.35    22.24    23.14    24.03    24.95    25.87    26.80    27.73    
 28.71    29.67    30.63    31.62    32.58    33.59    34.56    35.55    36.54    37.55    
 38.50    39.51    40.54    41.58    42.63    43.72    44.83    45.96    47.16    48.38    
 49.64    50.94    52.29    53.73    55.16    56.65    58.16    59.63    61.12    62.61    
 64.07    65.51    67.75    69.01    70.23    71.39    72.53    73.65    74.72    75.71    
 77.12    
46378.75 45130.43 43848.96 42571.17 41439.59 40580.16 39964.77 39548.90 39178.30 38748.94 
 38074.41 37145.15 35941.32 34490.41 32832.13 31045.83 29157.03 27246.58 25395.05 23615.07 
 21898.88 20309.51 18910.70 17624.05 16389.65 15254.41 14183.16 13201.99 12281.88 11497.65 
 10714.73 9931.80  9231.74  8557.23  7888.93  7228.29  6562.50  5917.10  5304.36  4774.11  
 4384.94  4121.46  3959.12  3809.30  3699.99  3622.25  3549.17  3487.74  3436.01  3391.97  
 3328.93  3261.18  3182.60  3091.52  3005.52  2927.56  2846.08  2755.76  2664.97  2578.18  
 2495.83  2410.54  2320.60  2230.21  2122.23  2013.28  1909.53  1807.02  1699.72  1595.19  
 1487.47  1380.13  1274.68  1176.97  1079.33  981.70   889.58   798.90   709.57   614.51   
 533.97   458.51   384.00   317.73   260.38   193.36   138.45   101.73   65.18    43.30    
 11.62    2.09     1.87     1.85     1.80     1.72     1.68     1.67     1.73     1.85     
 2.00     2.16     2.32     2.48     2.67     2.89     3.14     3.41     3.70     4.04     
 4.40     4.78     5.18     5.61     6.06     6.54     7.02     7.52     8.04     8.59     
 9.14     9.69     10.28    10.90    11.52    12.14    12.78    13.47    14.15    14.86    
 15.57    16.30    17.06    17.83    18.63    19.46    20.32    21.18    22.06    22.97    
 23.89    24.83    25.80    26.78    27.80    28.83    29.87    30.94    32.05    33.23    
 34.41    35.62    36.85    38.14    39.44    40.50    41.76    43.05    44.33    45.60    
 46.87    48.23    49.60    51.04    52.57    54.12    55.73    57.34    59.04    60.77    
 62.49    64.25    65.96    67.54    69.02    70.98    72.25    73.49    74.67    75.85    
 77.12    
46378.75 44858.92 43351.03 41859.69 40774.02 40069.36 39655.69 39251.26 38643.79 37612.41 
