IESNA:LM-63-2002
[TEST] 1
[TESTLAB] AOK
[TESTDATE] 2022-05-17
[ISSUEDATE] 2022-05-17 11:29:42
[NEARFIELD] 
[LAMPPOSITION] 0,0
[OTHER] EVERFINE GO-2000A_V1 SYSTEM
[MANUFAC] AOK
[LUMCAT] A
[LUMINAIRE] AOK-800WiSF-HV-S5-00-5070-3585D-P
[LAMPCAT] B
[LAMP] 5050
[BALLAST] E
[BALLASTCAT] F
[OTHER] 
[OTHER] Gamma(deg)    Fz(lm)      Ft(lm)     %Lum    %Lamp
[OTHER]   0- 10      8551.13     8551.13     7.57     7.57
[OTHER]  10- 20     19459.06    28010.19    24.80    24.80
[OTHER]  20- 30     22292.25    50302.44    44.53    44.53
[OTHER]  30- 40     21214.96    71517.40    63.31    63.31
[OTHER]  40- 50     17206.88    88724.28    78.55    78.55
[OTHER]  50- 60     12181.46   100905.74    89.33    89.33
[OTHER]  60- 70      6930.04   107835.79    95.46    95.46
[OTHER]  70- 80      3088.61   110924.40    98.20    98.20
[OTHER]  80- 90      1080.52   112004.91    99.16    99.16
[OTHER]  90-100       380.08   112384.99    99.49    99.49
[OTHER] 100-110       166.80   112551.79    99.64    99.64
[OTHER] 110-120       113.44   112665.23    99.74    99.74
[OTHER] 120-130        87.50   112752.73    99.82    99.82
[OTHER] 130-140        69.35   112822.08    99.88    99.88
[OTHER] 140-150        54.57   112876.65    99.93    99.93
[OTHER] 150-160        41.09   112917.73    99.96    99.96
[OTHER] 160-170        30.06   112947.79    99.99    99.99
[OTHER] 170-180        11.02   112958.81   100.00   100.00
[OTHER] 
TILT=NONE
1 1.1296e+005 1 181 25 1 2 0.150 0.200 0.000
1.000 1 807.059
0.0    1.0    2.0    3.0    4.0    5.0    6.0    7.0    8.0    9.0    
 10.0   11.0   12.0   13.0   14.0   15.0   16.0   17.0   18.0   19.0   
 20.0   21.0   22.0   23.0   24.0   25.0   26.0   27.0   28.0   29.0   
 30.0   31.0   32.0   33.0   34.0   35.0   36.0   37.0   38.0   39.0   
 40.0   41.0   42.0   43.0   44.0   45.0   46.0   47.0   48.0   49.0   
 50.0   51.0   52.0   53.0   54.0   55.0   56.0   57.0   58.0   59.0   
 60.0   61.0   62.0   63.0   64.0   65.0   66.0   67.0   68.0   69.0   
 70.0   71.0   72.0   73.0   74.0   75.0   76.0   77.0   78.0   79.0   
 80.0   81.0   82.0   83.0   84.0   85.0   86.0   87.0   88.0   89.0   
 90.0   91.0   92.0   93.0   94.0   95.0   96.0   97.0   98.0   99.0   
 100.0  101.0  102.0  103.0  104.0  105.0  106.0  107.0  108.0  109.0  
 110.0  111.0  112.0  113.0  114.0  115.0  116.0  117.0  118.0  119.0  
 120.0  121.0  122.0  123.0  124.0  125.0  126.0  127.0  128.0  129.0  
 130.0  131.0  132.0  133.0  134.0  135.0  136.0  137.0  138.0  139.0  
 140.0  141.0  142.0  143.0  144.0  145.0  146.0  147.0  148.0  149.0  
 150.0  151.0  152.0  153.0  154.0  155.0  156.0  157.0  158.0  159.0  
 160.0  161.0  162.0  163.0  164.0  165.0  166.0  167.0  168.0  169.0  
 170.0  171.0  172.0  173.0  174.0  175.0  176.0  177.0  178.0  179.0  
 180.0  
0.0    15.0   30.0   45.0   60.0   75.0   90.0   105.0  120.0  135.0  
 150.0  165.0  180.0  195.0  210.0  225.0  240.0  255.0  270.0  285.0  
 300.0  315.0  330.0  345.0  360.0  
93400.26 91119.97 89901.32 84324.01 77259.20 71616.41 62653.56 56275.25 48772.38 41485.34 
 32765.74 28562.40 26124.51 24019.24 22199.16 20568.68 15748.91 13208.48 10551.83 7893.37  
 5234.90  3573.48  1765.37  942.79   131.30   80.05    36.96    26.22    21.34    18.14    
 16.02    14.32    12.85    11.69    10.85    10.16    9.50     8.94     8.38     7.87     
 7.49     7.14     6.87     6.68     6.42     6.29     6.09     5.94     5.77     5.60     
 5.37     5.15     5.08     5.02     4.96     4.81     4.62     4.40     4.26     4.16     
 4.06     4.00     3.97     3.92     3.88     3.86     3.84     3.84     3.80     3.79     
 3.79     3.77     3.77     3.77     3.76     3.76     3.76     3.80     3.85     3.92     
 4.02     4.14     4.27     4.39     4.53     4.70     4.89     5.12     5.38     5.66     
 5.96     6.30     6.66     7.06     7.47     7.90     8.38     8.90     9.47     10.09    
 10.78    11.51    12.29    13.09    13.96    14.89    15.86    16.85    17.87    18.97    
 20.15    21.38    22.61    23.90    25.26    26.62    28.03    29.48    31.05    32.70    
 34.43    36.25    38.23    40.28    42.42    44.57    46.92    49.39    51.89    54.45    
 57.11    59.82    62.62    65.45    68.33    71.20    74.07    77.12    80.23    83.39    
 86.67    90.12    93.77    97.54    101.44   105.53   109.77   114.03   118.45   123.16   
 127.94   132.69   137.23   141.64   146.21   150.40   154.17   157.42   160.25   162.79   
 164.92   166.73   168.17   169.04   169.24   168.83   167.72   166.00   163.62   160.75   
 157.47   153.48   149.41   145.02   140.47   135.27   129.73   123.94   118.27   112.58   
 105.59   
93400.26 90157.59 88844.94 87336.74 77678.35 72331.35 66355.23 58879.19 52028.16 45198.51 
 38965.57 30430.57 26952.43 24673.58 22399.69 20677.93 18966.53 14560.42 12092.66 9510.83  
 7121.24  4909.76  3457.73  2005.70  564.88   414.41   263.95   114.74   98.33    76.87    
 54.85    50.32    41.71    36.72    37.60    31.87    23.66    19.55    16.45    14.59    
 13.48    12.54    11.63    10.83    10.16    9.47     8.80     8.02     7.66     7.40     
 7.10     6.89     6.68     6.44     6.23     6.06     5.88     5.68     5.48     5.31     
 5.22     5.22     5.20     5.12     5.00     4.85     4.68     4.55     4.41     4.30     
 4.19     4.10     4.03     3.98     3.95     3.96     3.96     3.97     3.99     4.04     
 4.10     4.19     4.31     4.46     4.63     4.81     5.02     5.25     5.50     5.80     
 6.12     6.45     6.82     7.23     7.69     8.19     8.70     9.26     9.87     10.56    
 11.28    12.02    12.81    13.64    14.52    15.51    16.52    17.56    18.61    19.74    
 20.92    22.18    23.45    24.71    26.04    27.47    28.98    30.59    32.22    33.91    
 35.72    37.65    39.70    41.79    43.90    46.11    48.39    50.78    53.19    55.63    
 58.14    60.68    63.26    65.85    68.44    71.10    73.92    76.78    79.70    82.80    
 86.14    89.61    93.15    96.92    100.77   104.79   108.90   113.11   117.44   121.92   
 126.51   130.98   135.27   139.66   143.67   147.39   150.75   153.91   156.81   159.39   
 161.55   163.30   164.48   165.05   164.23   163.40   162.08   160.27   158.16   155.73   
 152.90   149.91   146.54   142.86   138.95   134.67   129.95   125.05   119.91   114.95   
 105.59   
93400.26 90427.59 88142.69 86875.04 81616.80 75759.63 69919.84 64278.81 57273.85 51136.17 
 45075.23 38765.74 32083.20 27002.39 24465.47 22439.06 20516.53 18924.40 17250.85 13225.06 
 10963.97 8724.38  6484.79  4830.88  3678.23  2505.32  1771.77  1042.82  313.87   220.10   
 159.76   129.38   107.98   86.69    67.73    60.05    52.13    44.04    39.69    36.84    
 32.79    29.52    26.27    24.04    22.18    20.35    18.55    16.87    15.47    13.92    
 12.43    10.99    9.68     9.33     9.67     9.84     9.58     9.13     8.59     8.10     
 7.62     7.22     6.87     6.55     6.29     6.06     5.85     5.66     5.47     5.29     
 5.14     5.00     4.87     4.73     4.61     4.51     4.42     4.36     4.32     4.31     
 4.34     4.47     4.66     4.87     5.10     5.36     5.64     5.96     6.32     6.70     
 7.13     7.59     8.08     8.65     9.26     9.89     10.59    11.35    12.14    12.97    
 13.86    14.80    15.78    16.76    17.83    18.99    20.16    21.36    22.59    23.85    
 25.22    26.65    28.11    29.61    31.21    32.89    34.59    36.34    38.13    40.02    
 41.92    43.85    45.78    47.80    49.90    51.96    54.05    56.20    58.47    60.77    
 63.16    65.60    68.12    70.72    73.45    76.39    79.50    82.68    85.93    89.26    
 92.70    96.34    100.09   103.93   107.82   111.83   115.76   119.73   123.79   127.77   
 131.64   135.31   138.81   142.25   145.49   148.37   151.06   153.51   155.67   157.60   
 159.09   160.07   160.62   160.72   160.35   159.61   158.49   156.99   155.79   153.96   
 151.79   149.27   146.43   143.48   140.23   136.49   132.52   128.37   124.38   120.25   
 105.59   
93400.26 90604.42 88066.47 86582.16 85599.80 81354.23 74511.53 70799.91 66243.25 60656.14 
 55200.30 50107.76 44297.46 40007.44 35369.54 29230.49 26657.84 24085.18 21519.40 19643.23 
 17943.30 16342.27 14870.29 11599.80 9764.13  7937.10  5984.90  5062.82  3762.16  2870.99  
 1979.04  985.54   603.02   419.77   307.63   247.04   186.76   161.72   136.86   117.45   
 98.44    85.28    74.33    64.72    56.17    49.69    43.94    38.42    34.97    32.03    
 28.98    24.74    20.65    17.41    15.48    14.19    14.01    13.45    12.86    12.03    
 11.27    10.57    9.92     9.33     8.87     8.50     8.13     7.74     7.42     7.12     
 6.85     6.56     6.27     5.99     5.71     5.44     5.21     5.04     4.91     4.87     
 4.91     5.07     5.33     5.64     5.98     6.36     6.78     7.25     7.74     8.27     
 8.83     9.42     10.04    10.73    11.47    12.24    13.03    13.88    14.83    15.83    
 16.86    17.92    19.01    20.19    21.39    22.65    23.98    25.35    26.72    28.18    
 29.70    31.29    32.92    34.54    36.23    37.99    39.86    41.78    43.68    45.59    
 47.61    49.75    51.96    54.21    56.47    58.83    61.31    63.88    66.52    69.22    
 72.04    74.86    77.84    80.85    83.87    86.99    90.17    93.43    96.60    99.88    
 103.29   106.63   109.98   113.29   116.56   119.86   123.02   126.15   129.13   132.05   
 134.96   137.73   140.34   142.89   145.28   147.56   149.54   151.14   152.49   153.52   
 154.35   154.94   155.31   155.37   155.16   154.76   154.13   153.27   152.21   150.97   
 149.41   147.69   146.26   143.71   140.84   138.01   134.94   131.79   128.80   125.61   
 105.59   
93400.26 91327.45 88922.87 87420.48 86304.83 84552.29 83296.68 79040.30 73970.32 70917.36 
 67003.23 63420.56 59701.92 55068.53 51898.31 48646.60 44014.32 40325.15 37144.81 33345.83 
 29783.78 25832.48 23103.86 21115.79 19341.82 17624.52 16090.53 14601.39 13093.14 11801.90 
 10088.34 8369.57  6956.97  5639.32  4520.41  3793.30  3082.30  2457.74  1897.50  1394.59  
 1092.01  791.95   491.89   374.17   297.23   232.78   185.98   150.19   125.46   107.19   
 88.97    77.07    65.58    57.50    49.24    42.77    38.68    34.96    30.44    27.72    
 24.29    20.81    17.45    16.44    15.64    14.58    13.47    12.49    11.51    10.73    
 10.23    9.58     9.07     8.67     8.24     7.79     7.31     6.85     6.49     6.24     
 6.13     6.26     6.60     7.00     7.42     7.88     8.36     8.89     9.49     10.13    
 10.80    11.53    12.34    13.19    14.07    15.00    15.97    17.06    18.18    19.35    
 20.62    21.92    23.30    24.70    26.20    27.79    29.41    31.08    32.75    34.54    
 36.43    38.33    40.28    42.30    44.46    46.63    48.83    51.06    53.42    55.86    
 58.33    60.84    63.40    66.07    68.78    71.48    74.23    77.13    80.02    82.95    
 85.90    88.82    91.72    94.67    97.63    100.59   103.51   106.43   109.33   112.23   
 115.12   118.00   120.81   123.57   126.19   128.83   131.43   133.89   136.07   137.98   
 139.82   141.49   143.11   144.35   145.67   146.90   147.96   148.84   149.65   150.43   
 151.11   151.72   152.27   152.63   152.82   152.88   152.63   152.09   151.47   150.67   
 149.85   148.47   146.97   145.42   143.56   141.58   139.69   137.58   135.31   132.90   
 105.59   
93400.26 92429.12 90427.33 89023.27 87841.87 86329.10 85157.21 83443.14 82345.75 80640.63 
 79374.62 77943.32 76307.45 73973.45 71079.82 68300.78 65291.51 63035.89 60664.47 58377.80 
 55673.02 53149.40 50855.88 48113.11 45682.41 42860.76 40303.00 38076.06 35440.33 33177.22 
 30442.04 28079.86 26013.08 23840.98 21671.49 19815.40 17932.34 16083.13 14527.66 13076.77 
 11755.81 10652.99 9478.59  8434.55  7386.13  6431.70  5570.86  4756.59  3941.36  3282.77  
 2624.17  1968.15  1575.93  1271.63  1041.28  852.71   692.34   558.65   436.56   334.79   
 275.48   216.18   157.13   124.80   99.34    79.83    64.88    52.65    41.93    36.09    
 30.40    25.16    20.37    19.22    17.42    15.52    13.76    12.43    11.10    9.38     
 7.42     6.19     6.22     6.55     6.92     7.34     7.81     8.30     8.83     9.40     
 10.01    10.66    11.38    12.16    13.00    13.88    14.83    15.81    16.90    18.04    
 19.25    20.48    21.81    23.24    24.76    26.30    27.93    29.62    31.42    33.23    
 35.16    37.17    39.24    41.34    43.50    45.76    48.13    50.56    52.99    55.43    
 58.00    60.66    63.47    66.29    69.07    71.89    74.82    77.79    80.73    83.78    
 86.72    89.73    92.72    95.68    98.50    101.31   104.27   107.06   109.74   112.15   
 113.83   116.05   118.56   121.01   123.38   125.77   128.00   130.13   132.15   134.05   
 135.91   137.68   139.32   140.95   142.45   143.90   145.27   146.51   147.70   148.80   
 149.84   150.90   151.92   152.82   153.52   154.02   154.25   154.28   154.18   153.96   
 153.61   153.05   152.39   151.65   150.68   149.35   147.98   146.53   144.77   142.97   
 105.59   
93400.26 93466.00 92592.72 92057.93 91549.69 90609.72 89795.17 88531.66 87886.09 86512.91 
 85427.05 84761.02 83545.30 82636.07 81392.59 80141.65 78935.11 78098.26 76629.30 75141.10 
 73711.86 72589.28 71100.77 69635.67 67780.75 66279.91 64444.29 62879.04 60986.33 58974.26 
 56953.07 55056.08 52990.90 50841.39 48988.72 46980.02 44552.70 42395.35 40531.46 38927.15 
 37094.20 35095.98 33117.85 31296.72 29632.57 27759.65 26084.85 24410.05 22735.33 21068.79 
 19523.76 18060.65 16767.27 15390.78 14146.37 12918.79 11792.05 10734.48 9765.38  8843.26  
 8041.16  7229.04  6455.30  5754.72  5137.10  4589.64  4040.21  3532.92  3079.31  2697.65  
 2316.68  1993.91  1692.12  1420.87  1177.26  961.61   773.25   615.35   476.46   352.09   
 256.63   161.54   99.74    48.19    11.69    5.83     4.68     4.44     4.31     4.19     
 3.99     3.47     3.15     3.19     3.25     3.33     3.44     3.57     3.73     3.91     
 4.11     4.32     4.55     4.79     5.03     5.29     5.57     5.84     6.15     6.49     
 6.84     7.21     7.61     8.03     8.52     9.02     9.52     10.03    10.58    11.18    
 11.80    12.46    13.14    13.83    14.54    15.30    16.09    16.90    17.73    18.59    
 19.50    20.44    21.41    22.41    23.44    24.51    25.63    26.79    27.99    29.23    
 30.52    31.88    33.30    34.82    36.42    38.11    39.82    41.54    43.26    45.06    
 46.93    48.89    50.93    53.09    55.33    57.69    60.26    63.07    65.93    68.90    
 72.06    75.45    78.97    82.63    86.25    90.02    93.60    96.98    100.34   103.84   
 107.18   110.49   113.63   116.58   119.30   121.70   123.94   126.19   128.10   129.95   
 105.59   
93400.26 94124.28 93902.27 94556.00 95096.70 95555.26 95691.37 95932.03 96161.76 96463.22 
 96401.99 96748.90 96863.67 97060.38 97269.75 96931.53 96609.99 96136.17 95529.17 94729.35 
 93835.91 92965.60 91652.19 90167.17 88564.87 86849.70 84901.79 82853.73 80320.75 77902.61 
 75210.30 72479.46 69975.86 67518.22 65088.93 62907.58 60528.47 57939.89 55747.51 53759.54 
 51765.62 49675.86 47692.94 45663.12 43584.94 41690.08 39660.96 37738.60 35909.04 34128.18 
 32272.76 30563.32 28919.17 27279.62 25731.92 24252.94 22810.51 21500.21 20203.01 18877.92 
 17604.59 16426.84 15258.54 14218.01 13174.73 12119.43 11189.47 10260.64 9452.28  8629.54  
 7888.11  7168.41  6502.15  5889.48  5378.04  4877.28  4417.08  3971.43  3573.67  3226.53  
 2913.04  2628.18  2366.64  2126.61  1897.41  1703.90  1522.48  1374.34  1236.22  1104.05  
 971.94   854.51   751.52   662.07   581.46   512.45   452.30   403.74   360.13   321.83   
 288.41   260.01   235.88   214.45   194.78   176.79   160.81   146.77   134.14   123.63   
 113.14   105.03   96.70    86.73    75.07    62.21    48.84    37.58    31.38    21.08    
 10.47    8.09     8.20     8.68     9.23     9.83     10.45    11.09    11.78    12.53    
 13.28    14.01    14.89    15.78    16.71    17.68    18.80    20.21    20.78    21.28    
 22.18    23.13    24.00    24.87    25.80    26.60    27.34    28.47    30.11    31.67    
 33.10    34.51    35.28    36.57    38.30    40.06    42.04    44.18    46.43    48.92    
 51.60    54.57    57.71    61.23    64.98    69.26    73.16    76.46    80.24    84.15    
 88.13    92.10    95.88    99.52    103.17   106.65   110.13   113.54   116.78   119.99   
 105.59   
93400.26 94759.26 96231.61 97835.29 99733.85 101580.13 103390.79 104908.57 106304.71 107875.71 
 108974.59 109670.72 109730.19 109323.54 108337.56 106653.59 104047.85 101169.55 98839.38 96618.54 
 94354.12 91940.11 89377.51 87118.22 84822.43 82824.76 80700.09 78642.08 76484.81 74374.41 
 72495.78 70543.57 68542.45 66456.28 64269.79 62046.95 59793.98 57697.59 55666.80 53448.92 
 51276.08 49194.46 47287.92 45454.56 43731.73 41879.20 40226.27 38554.52 36982.78 35422.24 
 33799.30 32297.11 30874.83 29460.26 28034.35 26657.22 25353.85 24050.48 22746.84 21420.49 
 20137.82 19052.73 17972.37 16947.08 15956.94 14898.32 13908.74 12891.31 11886.98 11001.42 
 10088.25 9204.31  8360.51  7521.92  6680.56  5940.14  5303.31  4722.07  4183.23  3668.20  
 3254.43  2946.32  2638.20  2330.91  2092.05  1885.59  1709.79  1564.72  1435.92  1296.71  
 1160.13  1031.98  917.20   823.48   740.80   671.00   609.42   557.23   511.02   470.55   
 435.55   406.48   381.33   359.40   339.98   323.28   308.13   294.26   282.64   272.49   
 263.01   254.33   245.94   237.55   229.18   222.11   215.56   209.35   203.36   196.94   
 190.48   184.14   177.72   171.26   163.49   154.57   145.16   135.68   126.03   115.34   
 103.71   91.47    76.51    52.46    35.16    27.55    23.26    20.00    13.52    10.64    
 11.26    12.06    12.90    13.78    14.67    15.63    16.61    17.64    18.69    19.79    
 21.02    22.30    23.50    25.05    29.15    35.73    29.14    30.00    31.69    33.65    
 35.90    38.43    41.46    44.79    48.29    51.83    55.18    59.02    62.99    67.18    
 71.39    75.76    80.08    84.40    88.80    93.16    97.58    101.98   106.51   111.00   
 105.59   
93400.26 95794.85 98538.81 101105.45 104319.20 107269.54 110158.04 112814.24 114469.21 114975.71 
 114704.21 112238.48 109153.93 106684.49 103983.98 101433.71 98963.42 96770.53 94684.27 92527.08 
 90177.38 87905.86 85263.18 82485.29 79570.26 76706.14 74058.57 71527.66 69202.38 67070.88 
 65248.91 63573.72 62311.60 61081.17 60102.95 59030.86 57873.94 56788.40 55534.71 53984.81 
 52396.01 50599.10 48992.02 47466.68 46022.02 44390.10 42412.57 40464.18 38764.18 36958.04 
 35211.90 33553.32 31951.52 30342.27 28800.90 27276.14 25851.49 24487.69 23080.40 21600.71 
 20232.54 18900.88 17625.77 16331.24 15028.53 13873.63 12728.07 11530.34 10332.16 9133.98  
 8225.59  7464.35  6709.13  6028.41  5417.27  4793.84  4233.89  3771.39  3360.83  3003.42  
 2680.12  2404.56  2145.20  1911.36  1720.39  1555.36  1412.85  1285.96  1183.13  1080.51  
 977.90   878.08   790.33   714.87   649.86   594.48   547.25   508.38   474.75   445.83   
 420.83   400.06   381.47   365.51   350.49   337.27   325.71   315.14   305.57   296.11   
 287.65   280.02   273.67   267.07   260.69   254.78   249.23   244.01   238.51   232.87   
 227.94   222.66   216.46   209.81   203.21   196.91   190.53   184.41   178.26   172.23   
 166.33   160.26   154.14   147.63   141.90   136.39   130.63   122.96   115.28   105.25   
 94.56    85.50    75.09    49.35    24.09    19.38    16.31    14.17    12.59    12.61    
 13.60    14.66    15.77    17.00    18.24    19.52    20.90    22.41    24.22    26.39    
 29.06    36.67    38.72    35.00    37.59    40.62    43.94    47.52    51.30    55.30    
 59.52    63.91    68.40    72.76    77.30    81.98    87.03    92.35    97.63    103.16   
 105.59   
