IESNA:LM-63-2002
[TEST] 1
[TESTLAB] AOK
[TESTDATE] 2022-05-27
[ISSUEDATE] 2022-05-27 09:59:10
[NEARFIELD] 
[LAMPPOSITION] 0,0
[OTHER] EVERFINE GO-2000A_V1 SYSTEM
[MANUFAC] AOK
[LUMCAT] A
[LUMINAIRE] AOK-600WiSF-HV-S5-00-5070-15D-
[LAMPCAT] B
[LAMP] 5050
[BALLAST] E
[BALLASTCAT] F
[OTHER] 
[OTHER] Gamma(deg)    Fz(lm)      Ft(lm)     %Lum    %Lamp
[OTHER]   0- 10     34729.61    34729.61    47.82    47.82
[OTHER]  10- 20     16916.22    51645.84    71.12    71.12
[OTHER]  20- 30      6377.36    58023.20    79.90    79.90
[OTHER]  30- 40      4334.92    62358.12    85.87    85.87
[OTHER]  40- 50      3519.17    65877.30    90.71    90.71
[OTHER]  50- 60      2767.93    68645.22    94.52    94.52
[OTHER]  60- 70      1887.24    70532.46    97.12    97.12
[OTHER]  70- 80       951.12    71483.58    98.43    98.43
[OTHER]  80- 90       357.26    71840.84    98.92    98.92
[OTHER]  90-100       176.89    72017.74    99.17    99.17
[OTHER] 100-110       142.16    72159.89    99.36    99.36
[OTHER] 110-120       127.06    72286.95    99.54    99.54
[OTHER] 120-130        98.50    72385.45    99.67    99.67
[OTHER] 130-140        68.41    72453.86    99.77    99.77
[OTHER] 140-150        48.62    72502.48    99.83    99.83
[OTHER] 150-160        54.26    72556.74    99.91    99.91
[OTHER] 160-170        49.62    72606.36    99.98    99.98
[OTHER] 170-180        16.01    72622.37   100.00   100.00
[OTHER] 
TILT=NONE
1 72622 1 181 25 1 2 0.150 0.200 0.000
1.000 1 595.204
0.0    1.0    2.0    3.0    4.0    5.0    6.0    7.0    8.0    9.0    
 10.0   11.0   12.0   13.0   14.0   15.0   16.0   17.0   18.0   19.0   
 20.0   21.0   22.0   23.0   24.0   25.0   26.0   27.0   28.0   29.0   
 30.0   31.0   32.0   33.0   34.0   35.0   36.0   37.0   38.0   39.0   
 40.0   41.0   42.0   43.0   44.0   45.0   46.0   47.0   48.0   49.0   
 50.0   51.0   52.0   53.0   54.0   55.0   56.0   57.0   58.0   59.0   
 60.0   61.0   62.0   63.0   64.0   65.0   66.0   67.0   68.0   69.0   
 70.0   71.0   72.0   73.0   74.0   75.0   76.0   77.0   78.0   79.0   
 80.0   81.0   82.0   83.0   84.0   85.0   86.0   87.0   88.0   89.0   
 90.0   91.0   92.0   93.0   94.0   95.0   96.0   97.0   98.0   99.0   
 100.0  101.0  102.0  103.0  104.0  105.0  106.0  107.0  108.0  109.0  
 110.0  111.0  112.0  113.0  114.0  115.0  116.0  117.0  118.0  119.0  
 120.0  121.0  122.0  123.0  124.0  125.0  126.0  127.0  128.0  129.0  
 130.0  131.0  132.0  133.0  134.0  135.0  136.0  137.0  138.0  139.0  
 140.0  141.0  142.0  143.0  144.0  145.0  146.0  147.0  148.0  149.0  
 150.0  151.0  152.0  153.0  154.0  155.0  156.0  157.0  158.0  159.0  
 160.0  161.0  162.0  163.0  164.0  165.0  166.0  167.0  168.0  169.0  
 170.0  171.0  172.0  173.0  174.0  175.0  176.0  177.0  178.0  179.0  
 180.0  
0.0    15.0   30.0   45.0   60.0   75.0   90.0   105.0  120.0  135.0  
 150.0  165.0  180.0  195.0  210.0  225.0  240.0  255.0  270.0  285.0  
 300.0  315.0  330.0  345.0  360.0  
577728.25 577284.98 573210.13 561903.38 485887.10 402390.20 314614.27 215580.98 145332.98 105915.60 
 66861.54 27807.47 14125.22 726.38   408.38   229.96   51.55    36.71    27.87    22.18    
 18.82    16.43    14.51    12.90    11.95    10.92    9.87     9.55     9.25     9.82     
 10.22    9.70     8.68     7.69     7.31     7.05     6.98     6.64     6.59     6.30     
 6.00     5.86     5.73     5.39     5.17     5.13     5.10     4.92     4.67     4.44     
 4.39     4.32     4.32     4.26     4.22     4.20     4.05     3.95     3.90     3.85     
 3.71     3.63     3.58     3.52     3.45     3.35     3.30     3.25     3.23     3.20     
 3.18     3.15     3.13     3.10     3.07     3.05     3.04     3.03     3.03     3.03     
 3.03     3.07     3.18     3.36     3.48     3.58     3.68     3.74     3.78     3.82     
 3.88     3.94     3.98     3.99     4.05     4.12     4.21     4.33     4.50     4.70     
 4.92     5.18     5.47     5.79     6.16     6.54     6.96     7.40     7.85     8.31     
 8.76     9.19     9.59     10.00    10.43    10.90    11.39    11.90    12.48    13.08    
 13.70    14.36    15.04    15.75    16.49    17.28    18.11    18.99    19.88    20.81    
 21.80    22.82    23.89    24.98    26.07    27.21    28.45    29.81    31.31    32.94    
 34.75    36.87    39.30    42.32    45.96    50.24    55.37    61.64    69.29    79.14    
 91.74    106.53   123.17   141.03   159.41   179.01   200.43   221.33   241.32   261.30   
 279.75   296.49   309.43   318.20   323.08   323.61   320.69   314.59   306.16   296.76   
 286.06   274.35   261.90   249.14   236.20   222.66   208.81   194.49   179.29   163.06   
 146.37   
577728.25 575982.89 571127.93 559421.17 504161.23 414234.21 323903.26 233572.36 143618.37 103869.57 
 59862.86 45118.45 30374.03 15629.61 1014.39  769.30   606.62   387.25   271.94   157.17   
 114.64   88.24    70.37    64.82    51.37    40.27    27.27    21.09    17.49    14.87    
 13.16    11.75    10.02    8.27     7.24     6.58     6.13     6.08     6.36     6.79     
 6.79     6.74     6.63     6.50     6.29     6.13     5.98     5.81     5.61     5.45     
 5.27     5.09     4.89     4.76     4.61     4.46     4.38     4.26     4.10     4.01     
 3.94     3.83     3.75     3.65     3.52     3.42     3.33     3.26     3.17     3.05     
 2.95     2.87     2.78     2.70     2.65     2.57     2.52     2.48     2.48     2.48     
 2.48     2.50     2.53     2.57     2.65     2.72     2.79     2.87     2.97     3.06     
 3.15     3.24     3.34     3.45     3.57     3.70     3.86     4.04     4.24     4.46     
 4.70     4.97     5.26     5.57     5.91     6.26     6.62     7.02     7.44     7.87     
 8.33     8.80     9.27     9.73     10.23    10.74    11.30    11.88    12.47    13.07    
 13.72    14.41    15.14    15.87    16.62    17.41    18.24    19.12    20.04    21.02    
 22.02    23.05    24.11    25.19    26.31    27.50    28.77    30.17    31.70    33.41    
 35.40    37.70    40.31    43.38    46.98    51.32    56.52    63.00    71.00    81.28    
 93.52    108.23   125.89   143.58   163.20   183.26   203.97   224.30   244.61   264.09   
 282.13   298.27   310.88   319.60   323.49   323.42   320.08   313.87   305.62   295.98   
 285.33   273.86   261.90   249.48   237.09   224.61   211.13   196.89   180.87   162.68   
 146.37   
577728.25 573893.43 566920.22 551435.19 515610.34 420537.89 328325.48 236868.71 161639.19 122612.34 
 84014.66 45417.00 29247.08 17356.55 11949.04 6610.23  1271.43  867.55   526.51   386.93   
 286.63   217.97   169.27   127.28   104.50   81.94    70.42    60.65    52.28    43.02    
 37.67    33.27    29.40    26.40    23.74    20.15    16.98    15.34    14.38    13.72    
 13.31    12.69    12.27    11.77    11.08    10.28    9.58     8.97     8.12     7.46     
 6.72     5.85     5.41     5.25     5.15     5.03     4.81     4.57     4.31     4.05     
 3.86     3.74     3.62     3.47     3.32     3.18     3.06     2.95     2.85     2.78     
 2.71     2.65     2.60     2.54     2.49     2.44     2.39     2.36     2.34     2.33     
 2.34     2.36     2.42     2.48     2.55     2.61     2.70     2.80     2.89     3.01     
 3.14     3.28     3.43     3.59     3.77     3.96     4.15     4.34     4.56     4.78     
 5.01     5.27     5.52     5.81     6.10     6.43     6.77     7.14     7.52     7.91     
 8.33     8.78     9.23     9.70     10.19    10.68    11.23    11.78    12.37    12.97    
 13.60    14.24    14.92    15.62    16.33    17.06    17.84    18.68    19.54    20.42    
 21.36    22.33    23.36    24.51    25.75    27.06    28.49    30.11    31.96    34.00    
 36.24    38.83    41.79    45.18    49.10    53.91    59.74    66.90    75.59    86.41    
 99.60    114.51   131.09   148.65   167.39   187.76   208.26   228.13   248.70   269.27   
 286.21   300.47   311.01   317.61   320.40   319.66   315.90   309.73   301.71   292.17   
 281.87   270.74   258.70   246.34   234.28   221.15   206.84   192.09   176.51   160.31   
 146.37   
577728.25 573005.20 563918.44 546215.67 510766.45 453303.25 355642.72 273579.53 191700.80 134575.59 
 98376.39 64733.39 51206.10 38744.23 26282.36 13898.58 9961.71  5655.27  1388.03  1047.02  
 767.39   544.38   376.68   300.54   224.40   148.62   113.05   90.57    76.68    66.48    
 58.25    51.13    45.56    40.87    37.04    33.72    30.86    28.21    25.89    23.52    
 20.77    17.56    15.37    14.00    13.07    12.26    11.53    10.88    10.34    9.72     
 9.02     8.39     7.79     7.32     6.89     6.54     6.25     5.96     5.68     5.41     
 5.14     4.90     4.70     4.49     4.31     4.13     3.95     3.73     3.52     3.33     
 3.14     2.96     2.81     2.66     2.53     2.42     2.33     2.22     2.13     2.11     
 2.11     2.14     2.18     2.25     2.32     2.41     2.50     2.61     2.72     2.85     
 2.99     3.13     3.29     3.46     3.63     3.82     4.02     4.24     4.46     4.70     
 4.96     5.22     5.51     5.79     6.12     6.45     6.78     7.14     7.50     7.87     
 8.26     8.68     9.10     9.53     9.96     10.44    10.93    11.43    11.93    12.44    
 12.97    13.53    14.10    14.68    15.27    15.89    16.55    17.25    17.95    18.73    
 19.57    20.46    21.48    22.53    23.73    25.01    26.49    28.16    29.96    32.00    
 34.37    37.02    40.05    43.59    47.74    52.82    58.93    66.41    75.36    86.37    
 98.94    114.53   130.15   147.98   167.16   186.91   207.43   227.35   246.73   264.54   
 280.11   292.97   302.64   309.20   312.22   312.16   309.43   304.13   297.00   288.47   
 278.90   268.01   256.65   244.76   232.36   219.59   206.09   192.45   178.17   163.97   
 146.37   
577728.25 571242.48 558553.72 533930.71 489569.73 426513.72 353434.43 280824.77 214761.36 155754.01 
 115345.94 90531.17 65892.01 51419.69 40429.38 27832.78 22189.77 18355.87 12081.75 9687.86  
 7341.81  4339.01  3240.28  1423.76  1013.06  617.90   472.49   355.30   256.16   194.80   
 157.63   133.02   114.97   96.99    84.39    72.53    62.83    54.84    47.96    42.52    
 37.80    34.08    30.90    28.02    25.47    23.41    21.40    19.31    17.43    15.24    
 12.92    11.51    10.67    10.01    9.42     8.95     8.57     8.22     7.91     7.63     
 7.37     7.13     6.90     6.68     6.51     6.35     6.19     6.04     5.89     5.71     
 5.52     5.26     5.00     4.68     4.34     4.00     3.64     3.32     3.00     2.62     
 2.42     2.39     2.38     2.44     2.51     2.60     2.69     2.80     2.92     3.05     
 3.19     3.34     3.51     3.69     3.88     4.09     4.32     4.55     4.81     5.07     
 5.35     5.62     5.92     6.24     6.56     6.89     7.23     7.58     7.95     8.32     
 8.70     9.10     9.51     9.92     10.36    10.81    11.27    11.73    12.22    12.72    
 13.22    13.72    14.23    14.77    15.30    15.84    16.43    17.02    17.63    18.27    
 18.96    19.74    20.56    21.47    22.47    23.55    24.83    26.34    28.05    30.04    
 32.28    34.89    37.92    41.58    46.13    51.71    58.37    66.37    75.94    87.45    
 100.69   115.26   131.17   148.74   167.21   185.84   204.47   222.94   240.14   257.34   
 271.02   282.51   291.39   297.85   301.43   302.17   300.44   296.36   290.35   283.01   
 275.40   265.97   255.40   244.62   233.13   220.89   208.33   196.00   183.14   170.41   
 146.37   
577728.25 570698.79 556965.42 530821.82 485206.09 421197.50 348076.39 288897.89 229719.42 170713.31 
 134027.49 107380.09 87420.14 71568.92 58343.97 47580.30 37754.78 29402.89 24913.84 20431.95 
 16914.48 13583.49 10610.78 8702.02  7284.51  6021.80  4925.18  4171.99  3620.83  3126.53  
 2688.72  2251.70  1918.57  1641.94  1386.41  1128.71  907.37   720.15   554.75   425.34   
 333.65   278.53   223.40   168.46   137.46   112.11   91.23    75.61    64.10    54.86    
 47.96    42.35    37.36    33.54    30.22    27.36    25.07    23.22    21.70    20.16    
 18.95    17.77    16.37    15.16    13.86    13.32    13.08    12.85    12.72    12.60    
 12.46    12.30    12.09    11.94    11.75    11.48    11.06    10.23    9.12     7.56     
 5.83     2.97     2.02     2.04     2.09     2.16     2.24     2.32     2.41     2.51     
 2.63     2.75     2.90     3.05     3.22     3.41     3.59     3.79     4.00     4.24     
 4.48     4.73     4.99     5.28     5.55     5.85     6.17     6.50     6.83     7.19     
 7.56     7.95     8.34     8.72     9.13     9.54     9.96     10.42    10.87    11.32    
 11.79    12.29    12.78    13.28    13.77    14.28    14.78    15.31    15.82    16.35    
 16.90    17.49    18.13    18.81    19.61    20.52    21.60    22.84    24.26    25.98    
 28.08    30.55    33.51    37.18    41.69    47.36    54.18    62.52    72.19    83.72    
 96.54    110.89   127.10   143.72   161.15   178.68   196.50   213.24   229.58   244.46   
 257.56   269.17   278.77   286.57   291.88   295.27   297.30   296.23   292.16   287.30   
 281.13   274.16   265.06   254.96   244.24   232.17   220.19   207.86   195.36   182.98   
 146.37   
577728.25 570492.27 557858.51 532537.39 488104.21 424915.37 353070.24 293558.81 234047.44 174764.02 
 137199.90 109441.36 89444.39 73891.87 60910.96 50476.69 42133.00 35410.77 30046.32 25909.99 
 21782.11 18465.80 15676.01 13362.00 11500.10 10103.92 9146.98  8439.31  7896.96  7439.85  
 7042.43  6675.65  6300.04  5954.71  5653.53  5355.62  5067.50  4800.62  4551.34  4312.68  
 4067.39  3830.43  3609.25  3438.58  3269.80  3092.55  2903.89  2724.71  2545.52  2366.55  
 2205.74  2048.63  1890.39  1737.75  1586.20  1444.12  1306.97  1178.31  1055.92  936.03   
 832.52   732.89   636.77   548.59   462.37   382.86   309.26   251.66   194.19   149.42   
 111.01   80.93    59.37    42.90    28.77    16.55    7.22     3.48     2.65     2.42     
 1.89     1.60     1.51     1.43     1.38     1.31     1.26     1.22     1.14     1.03     
 0.97     0.83     0.71     0.70     0.71     0.72     0.74     0.76     0.78     0.81     
 0.85     0.88     0.92     0.96     1.00     1.05     1.09     1.15     1.20     1.26     
 1.31     1.37     1.42     1.47     1.54     1.59     1.66     1.73     1.81     1.87     
 1.95     2.02     2.10     2.18     2.25     2.34     2.42     2.52     2.61     2.72     
 2.83     2.95     3.08     3.23     3.40     3.59     3.80     4.07     4.38     4.75     
 5.20     5.77     6.42     7.23     8.21     9.40     10.73    12.18    13.79    15.59    
 17.54    19.62    21.87    24.27    26.81    29.41    32.11    34.84    37.58    40.29    
 42.98    45.64    48.29    50.93    53.52    56.13    58.71    61.49    64.33    68.39    
 71.88    75.89    80.94    87.30    95.05    104.03   115.28   127.69   141.60   156.47   
 146.37   
577728.25 570133.63 556397.32 530588.78 488283.65 428978.86 360380.07 292084.33 232766.30 182547.75 
 144343.07 116248.80 98434.61 80705.73 67781.93 57212.54 49039.61 42277.13 36806.30 31910.20 
 27593.73 23672.06 20419.00 17494.50 15163.37 13372.71 12035.40 11196.62 10361.53 9811.83  
 9356.61  8970.84  8639.95  8327.89  8074.26  7848.27  7645.26  7432.05  7216.15  7011.59  
 6820.70  6621.57  6423.96  6235.14  6060.36  5880.51  5694.63  5512.30  5351.15  5201.36  
 5054.45  4918.72  4779.11  4631.49  4479.41  4323.30  4169.14  4017.00  3867.28  3713.18  
 3560.64  3410.12  3266.78  3112.75  2957.42  2797.29  2635.93  2478.94  2319.59  2162.62  
 2012.06  1860.74  1717.41  1566.97  1422.03  1285.92  1169.60  1053.47  937.33   838.18   
 750.22   672.45   600.44   541.49   490.24   445.17   407.96   376.24   350.28   322.90   
 296.64   274.98   262.13   251.37   234.47   218.22   203.86   190.29   178.87   167.48   
 157.03   148.13   139.85   132.82   126.13   119.45   112.76   107.83   102.67   97.10    
 91.88    86.74    81.53    76.40    71.45    66.44    61.88    57.48    53.15    48.89    
 44.79    40.98    36.94    32.76    28.43    24.32    20.24    16.16    12.30    8.37     
 6.32     4.75     3.44     2.53     2.30     2.30     2.44     2.62     2.82     3.08     
 3.39     3.79     4.31     4.94     5.78     6.82     8.01     9.32     10.87    12.59    
 14.48    16.46    18.65    20.98    23.41    25.86    28.40    30.89    33.34    35.69    
 37.94    40.15    42.21    44.24    46.18    48.11    50.16    52.32    55.17    58.08    
 60.92    64.39    68.87    74.65    81.90    90.73    101.92   115.27   129.83   146.01   
 146.37   
577728.25 571392.16 559846.09 539279.72 503136.59 451707.84 389598.54 324083.35 265293.38 206670.80 
 164056.05 134065.48 111899.98 94839.10 80932.08 70215.71 61818.82 54776.60 48489.84 43022.72 
 38051.62 33457.78 29241.17 25751.18 22270.64 19616.74 17331.37 15426.69 13887.08 12639.81 
 11656.23 10898.42 10346.26 9953.88  9678.66  9448.52  9226.32  9003.37  8783.33  8574.51  
 8372.53  8176.77  7993.09  7796.61  7594.71  7407.84  7211.05  7018.23  6823.94  6639.36  
 6469.54  6302.53  6138.10  5957.80  5770.24  5584.36  5405.13  5215.84  5016.60  4817.72  
 4615.22  4409.62  4210.84  4016.44  3823.35  3629.37  3437.39  3247.27  3044.24  2827.38  
 2618.38  2409.70  2227.27  2046.03  1867.71  1686.04  1518.87  1370.12  1227.85  1097.74  
 977.72   874.48   785.47   711.14   650.20   599.20   558.78   521.32   490.71   459.19   
 429.58   403.06   380.23   362.54   347.07   332.18   318.53   304.81   292.94   282.06   
 271.12   262.03   253.80   246.13   238.72   231.32   224.96   219.61   214.93   210.26   
 205.93   201.82   197.98   194.16   190.36   186.95   183.13   179.59   175.92   172.15   
 168.49   164.60   160.44   156.22   151.95   147.19   142.66   137.99   133.08   128.22   
 123.26   118.38   113.48   108.22   103.12   97.57    91.68    85.68    80.14    74.29    
 68.32    62.79    57.29    51.49    46.02    42.11    32.80    14.76    11.40    10.14    
 11.36    13.33    15.57    18.00    20.61    23.32    26.16    29.00    31.91    34.78    
 37.56    40.19    42.68    45.10    47.35    49.39    51.17    52.92    54.54    56.25    
 58.25    61.31    64.53    68.66    74.27    82.27    92.40    104.93   119.63   136.23   
 146.37   
577728.25 571739.84 560433.47 541853.72 511558.38 467064.96 408782.36 344251.25 281712.92 225034.01 
 178947.17 145508.68 121419.18 105556.22 89759.45 79056.53 70777.09 63725.97 57431.75 51207.79 
 45761.19 40562.29 35909.94 31518.80 27788.93 24621.11 21978.93 19635.48 17571.52 15786.19 
 14279.46 13055.28 12113.68 11601.94 11093.92 10585.91 10236.52 9903.21  9592.08  9328.20  
 9094.35  8878.37  8669.35  8464.79  8267.47  8070.22  7882.16  7704.59  7522.29  7323.15  
 7126.81  6941.55  6755.20  6574.43  6392.51  6195.79  5982.14  5763.94  5538.11  5307.01  
 5085.47  4865.02  4640.37  4400.90  4162.49  3941.28  3721.42  3497.98  3278.50  3047.05  
 2821.91  2612.03  2398.05  2186.25  1989.65  1800.40  1614.01  1440.44  1282.58  1160.60  
 1038.93  917.26   824.87   747.28   685.58   634.19   585.74   544.24   512.11   482.81   
 452.98   423.14   399.38   378.25   361.80   350.33   341.79   334.61   327.02   319.16   
 311.94   305.12   299.42   294.03   289.43   285.81   282.78   280.08   277.52   274.83   
 272.22   269.74   268.09   266.39   264.70   263.13   261.40   259.45   257.67   255.93   
 253.89   251.98   249.25   245.57   241.75   237.54   233.02   228.20   223.14   218.23   
 213.37   208.24   202.77   197.26   191.36   185.71   179.67   173.47   167.13   160.53   
 153.56   147.17   140.78   134.70   128.14   120.24   112.33   104.38   97.79    91.78    
 84.56    77.53    70.58    67.34    64.41    46.74    31.30    31.58    33.33    35.42    
 37.30    39.49    42.47    45.63    48.75    51.72    54.27    56.32    58.09    59.52    
 60.81    62.06    63.73    66.23    70.14    76.34    84.99    96.41    110.38   126.97   
 146.37   
