IESNA:LM-63-2002
[TEST] 1
[TESTLAB] AOK
[TESTDATE] 2022-05-19
[ISSUEDATE] 2022-05-19 19:24:23
[NEARFIELD] 
[LAMPPOSITION] 0,0
[OTHER] EVERFINE GO-2000A_V1 SYSTEM
[MANUFAC] AOK
[LUMCAT] A
[LUMINAIRE] AOK-800WiSF-NV-S5-00-5070-30D-P
[LAMPCAT] B
[LAMP] 5050
[BALLAST] E
[BALLASTCAT] F
[OTHER] 
[OTHER] Gamma(deg)    Fz(lm)      Ft(lm)     %Lum    %Lamp
[OTHER]   0- 10     22344.40    22344.40    20.03    20.03
[OTHER]  10- 20     36187.38    58531.78    52.46    52.46
[OTHER]  20- 30     21453.61    79985.39    71.69    71.69
[OTHER]  30- 40     13604.02    93589.41    83.89    83.89
[OTHER]  40- 50      8265.82   101855.24    91.30    91.30
[OTHER]  50- 60      4556.32   106411.55    95.38    95.38
[OTHER]  60- 70      2523.27   108934.82    97.64    97.64
[OTHER]  70- 80      1243.59   110178.42    98.76    98.76
[OTHER]  80- 90       520.58   110698.99    99.22    99.22
[OTHER]  90-100       248.67   110947.66    99.45    99.45
[OTHER] 100-110       158.88   111106.55    99.59    99.59
[OTHER] 110-120       119.24   111225.78    99.70    99.70
[OTHER] 120-130        90.33   111316.11    99.78    99.78
[OTHER] 130-140        67.16   111383.27    99.84    99.84
[OTHER] 140-150        55.19   111438.46    99.89    99.89
[OTHER] 150-160        56.01   111494.47    99.94    99.94
[OTHER] 160-170        51.36   111545.84    99.98    99.98
[OTHER] 170-180        20.05   111565.89   100.00   100.00
[OTHER] 
TILT=NONE
1 1.1157e+005 1 181 25 1 2 0.150 0.200 0.000
1.000 1 764.865
0.0    1.0    2.0    3.0    4.0    5.0    6.0    7.0    8.0    9.0    
 10.0   11.0   12.0   13.0   14.0   15.0   16.0   17.0   18.0   19.0   
 20.0   21.0   22.0   23.0   24.0   25.0   26.0   27.0   28.0   29.0   
 30.0   31.0   32.0   33.0   34.0   35.0   36.0   37.0   38.0   39.0   
 40.0   41.0   42.0   43.0   44.0   45.0   46.0   47.0   48.0   49.0   
 50.0   51.0   52.0   53.0   54.0   55.0   56.0   57.0   58.0   59.0   
 60.0   61.0   62.0   63.0   64.0   65.0   66.0   67.0   68.0   69.0   
 70.0   71.0   72.0   73.0   74.0   75.0   76.0   77.0   78.0   79.0   
 80.0   81.0   82.0   83.0   84.0   85.0   86.0   87.0   88.0   89.0   
 90.0   91.0   92.0   93.0   94.0   95.0   96.0   97.0   98.0   99.0   
 100.0  101.0  102.0  103.0  104.0  105.0  106.0  107.0  108.0  109.0  
 110.0  111.0  112.0  113.0  114.0  115.0  116.0  117.0  118.0  119.0  
 120.0  121.0  122.0  123.0  124.0  125.0  126.0  127.0  128.0  129.0  
 130.0  131.0  132.0  133.0  134.0  135.0  136.0  137.0  138.0  139.0  
 140.0  141.0  142.0  143.0  144.0  145.0  146.0  147.0  148.0  149.0  
 150.0  151.0  152.0  153.0  154.0  155.0  156.0  157.0  158.0  159.0  
 160.0  161.0  162.0  163.0  164.0  165.0  166.0  167.0  168.0  169.0  
 170.0  171.0  172.0  173.0  174.0  175.0  176.0  177.0  178.0  179.0  
 180.0  
0.0    15.0   30.0   45.0   60.0   75.0   90.0   105.0  120.0  135.0  
 150.0  165.0  180.0  195.0  210.0  225.0  240.0  255.0  270.0  285.0  
 300.0  315.0  330.0  345.0  360.0  
256819.66 253416.29 250691.53 250346.66 249908.32 227730.76 214072.77 199696.57 181046.06 164594.68 
 147380.10 130946.53 117422.90 103931.68 90440.46 83934.53 76923.57 69272.60 49702.60 38134.28 
 26381.56 20652.40 12948.95 6795.08  658.89   101.59   68.17    39.62    28.58    23.96    
 20.93    17.96    16.53    15.40    13.93    12.30    11.17    10.08    9.39     8.78     
 8.35     8.18     7.89     7.48     7.12     6.77     6.54     6.18     5.90     5.77     
 5.68     5.48     5.30     5.11     5.08     4.90     4.85     4.75     4.70     4.65     
 4.64     4.63     4.59     4.58     4.57     4.56     4.55     4.54     4.53     4.51     
 4.47     4.43     4.38     4.32     4.26     4.19     4.13     4.07     4.01     3.97     
 3.94     3.91     3.88     3.87     3.86     3.86     3.89     3.97     4.08     4.20     
 4.34     4.47     4.64     4.81     5.00     5.20     5.42     5.67     5.96     6.27     
 6.60     6.96     7.33     7.73     8.16     8.62     9.09     9.58     10.10    10.69    
 11.32    12.02    12.77    13.57    14.44    15.38    16.36    17.42    18.57    19.81    
 21.14    22.53    24.01    25.65    27.37    29.24    31.27    33.53    35.92    38.42    
 41.09    43.98    47.06    50.39    53.96    57.65    61.59    65.86    70.54    75.55    
 80.90    86.90    93.40    100.41   107.85   115.84   124.44   133.47   142.79   152.75   
 163.00   173.35   183.54   193.68   204.09   214.33   223.83   232.63   241.87   251.10   
 258.70   265.86   272.38   278.79   284.16   288.19   290.78   292.19   292.29   291.08   
 288.18   284.36   280.00   274.88   269.31   262.31   254.05   244.95   235.10   223.66   
 211.16   
256819.66 253092.65 249695.26 247998.40 247203.26 233440.03 219673.68 205571.59 189956.08 173609.79 
 155307.61 138911.65 123205.26 97179.15 89616.42 82288.28 74832.09 67545.51 60234.54 43064.08 
 33022.03 25661.28 18305.17 11542.62 7877.17  4211.72  578.39   445.83   313.27   181.48   
 127.49   85.28    100.81   91.76    49.56    31.55    24.01    20.19    18.13    16.61    
 15.55    14.68    13.74    12.85    11.91    11.14    10.55    9.77     8.81     8.19     
 7.67     7.34     7.13     6.87     6.61     6.43     6.32     6.19     6.03     5.87     
 5.70     5.55     5.43     5.32     5.21     5.10     5.01     4.89     4.75     4.61     
 4.48     4.37     4.27     4.17     4.08     3.98     3.90     3.81     3.72     3.66     
 3.61     3.60     3.60     3.61     3.63     3.67     3.73     3.82     3.90     4.02     
 4.15     4.27     4.41     4.58     4.78     4.99     5.22     5.46     5.74     6.04     
 6.37     6.70     7.07     7.44     7.86     8.29     8.78     9.27     9.80     10.36    
 10.96    11.60    12.33    13.12    13.92    14.84    15.83    16.87    17.94    19.09    
 20.36    21.78    23.31    24.90    26.58    28.46    30.46    32.61    34.89    37.37    
 39.97    42.72    45.72    48.89    52.23    55.87    59.79    64.04    68.46    73.31    
 78.76    84.56    90.86    97.70    105.09   113.08   122.14   131.21   140.56   150.69   
 160.82   171.24   181.42   191.89   202.29   212.41   222.36   231.70   240.74   248.96   
 256.88   264.31   271.28   278.14   283.29   287.72   290.78   292.16   292.23   291.14   
 288.71   285.72   281.90   277.31   271.80   265.17   257.55   248.95   239.29   228.55   
 211.16   
256819.66 253218.27 249854.97 246455.08 244854.92 242223.73 230750.97 209520.22 194693.13 179984.50 
 160938.23 147626.89 129063.86 111679.23 94308.11 76936.99 69066.68 61810.28 54416.09 47718.76 
 41467.23 30245.92 23879.99 19305.18 13874.47 10447.23 7712.93  4985.67  1205.03  801.58   
 440.66   268.36   194.78   159.77   128.00   103.77   79.62    66.32    53.45    43.74    
 38.42    33.45    29.83    26.28    24.20    22.66    20.78    19.28    17.82    16.43    
 13.96    12.62    11.84    10.93    9.79     8.85     8.62     8.61     8.54     8.27     
 7.91     7.50     7.19     6.95     6.75     6.57     6.38     6.21     6.03     5.86     
 5.65     5.43     5.21     5.01     4.81     4.59     4.39     4.20     4.02     3.87     
 3.73     3.62     3.57     3.56     3.58     3.65     3.73     3.84     3.95     4.08     
 4.21     4.37     4.53     4.73     4.94     5.16     5.40     5.66     5.94     6.24     
 6.56     6.92     7.28     7.66     8.08     8.54     9.02     9.51     10.02    10.59    
 11.22    11.90    12.62    13.41    14.26    15.17    16.12    17.15    18.29    19.54    
 20.86    22.26    23.77    25.42    27.15    28.95    30.86    33.00    35.26    37.66    
 40.17    42.84    45.63    48.67    52.02    55.64    59.46    63.56    67.94    72.69    
 77.85    83.72    90.15    97.01    104.31   111.98   120.07   129.14   138.74   148.61   
 158.45   168.41   178.91   189.45   199.67   209.78   219.79   229.39   239.02   248.65   
 257.20   265.27   272.80   279.28   284.72   288.84   291.91   293.65   294.78   293.94   
 292.01   289.34   286.37   282.43   277.10   270.43   262.60   253.72   244.54   233.61   
 211.16   
256819.66 253556.32 250368.62 246894.64 241934.75 236441.05 230953.37 225973.00 210233.93 189667.83 
 174829.35 160381.47 141797.38 126295.95 110412.68 94107.66 80236.09 69186.65 53412.32 45017.77 
 39194.52 34442.81 30574.34 27447.57 24457.07 21450.74 16683.62 13107.83 10993.09 8286.84  
 6563.36  4825.35  3457.22  2089.09  730.31   488.60   334.02   255.85   178.10   144.31   
 116.10   94.50    78.58    67.15    57.65    49.78    42.84    38.25    34.51    30.76    
 27.96    26.04    24.26    22.23    19.37    16.01    12.70    12.11    11.65    11.29    
 10.70    10.19    9.71     9.29     8.91     8.54     8.15     7.86     7.58     7.28     
 6.97     6.69     6.41     6.13     5.82     5.49     5.15     4.78     4.43     4.11     
 3.82     3.58     3.40     3.38     3.42     3.50     3.60     3.72     3.85     3.99     
 4.15     4.32     4.49     4.69     4.91     5.14     5.38     5.63     5.91     6.23     
 6.55     6.88     7.25     7.64     8.07     8.54     9.03     9.53     10.07    10.67    
 11.29    11.95    12.70    13.48    14.31    15.24    16.25    17.30    18.37    19.55    
 20.82    22.23    23.73    25.29    26.88    28.63    30.56    32.57    34.65    36.89    
 39.31    41.85    44.60    47.48    50.61    53.90    57.59    61.56    65.75    70.37    
 75.56    81.15    87.24    93.84    101.00   108.83   117.61   126.40   135.67   145.57   
 155.44   165.86   176.12   186.75   197.36   207.83   218.37   228.41   238.44   247.70   
 256.35   264.37   271.48   277.95   283.34   287.70   291.33   293.38   294.40   294.48   
 293.53   291.50   288.62   284.62   279.50   272.67   264.64   256.00   246.55   236.08   
 211.16   
256819.66 254151.67 251129.44 247014.62 240515.58 233000.92 226309.54 219279.36 211468.36 202172.13 
 191265.61 175872.21 156463.56 139187.57 123063.02 108743.16 94441.98 80140.80 68518.94 59440.56 
 48941.59 42539.52 36791.37 32386.04 28434.64 23979.10 21535.02 19560.59 17713.36 15999.56 
 14520.16 13047.51 11493.41 9865.36  8236.48  6836.63  5352.67  4275.89  3419.31  2746.97  
 2109.22  1508.04  1159.14  813.29   467.43   322.09   241.55   192.39   152.40   123.35   
 105.76   88.28    79.03    67.73    57.93    51.21    45.82    40.26    35.17    31.87    
 28.80    25.71    22.78    17.97    15.06    13.80    13.14    12.40    11.55    10.82    
 10.23    9.63     9.14     8.65     8.12     7.64     7.17     6.66     6.08     5.45     
 4.85     4.32     3.87     3.68     3.67     3.77     3.89     4.02     4.16     4.32     
 4.49     4.67     4.85     5.06     5.29     5.51     5.77     6.04     6.34     6.66     
 6.99     7.33     7.70     8.11     8.54     9.01     9.49     9.99     10.55    11.16    
 11.80    12.51    13.26    14.06    14.92    15.85    16.81    17.83    18.94    20.13    
 21.38    22.73    24.16    25.66    27.26    28.97    30.82    32.78    34.85    37.06    
 39.34    41.81    44.48    47.35    50.42    53.69    57.31    61.35    65.79    70.60    
 75.84    81.49    87.81    94.83    102.37   110.34   118.83   127.99   137.56   147.44   
 157.71   168.01   178.45   189.02   199.54   209.75   219.93   229.86   239.78   249.71   
 257.96   265.59   272.48   278.70   284.16   289.01   292.54   294.95   296.21   296.48   
 296.18   293.89   290.34   285.87   280.56   274.15   266.96   258.99   250.05   240.33   
 211.16   
256819.66 255089.27 252801.81 249043.58 241724.46 234405.33 227078.23 218931.35 210091.43 199286.01 
 187928.10 176038.31 162358.29 148872.35 134036.33 120718.20 107318.41 95141.10 83734.25 74084.90 
 65566.40 58297.33 51647.26 45581.49 41506.88 38037.63 34914.03 31367.01 28634.42 26209.74 
 23913.57 21619.51 19604.16 17966.18 16390.50 14820.30 13339.50 12122.99 10998.68 9882.32  
 8898.09  7984.40  7124.58  6362.41  5634.76  5031.71  4389.20  3832.98  3322.52  2864.96  
 2407.39  1950.57  1569.20  1219.87  945.39   716.69   564.96   443.65   363.49   298.54   
 245.09   191.78   153.53   123.93   102.81   85.73    71.67    59.14    49.51    42.22    
 36.19    31.35    27.40    23.03    17.47    15.91    14.61    12.96    11.61    10.45    
 9.10     7.45     5.46     3.84     3.37     3.43     3.53     3.63     3.76     3.89     
 4.03     4.19     4.35     4.55     4.77     4.99     5.23     5.48     5.76     6.05     
 6.35     6.66     7.00     7.36     7.75     8.18     8.67     9.18     9.69     10.26    
 10.88    11.55    12.27    13.01    13.79    14.65    15.61    16.61    17.63    18.70    
 19.85    21.12    22.51    23.98    25.48    27.12    28.90    30.81    32.90    35.05    
 37.34    39.85    42.49    45.31    48.37    51.67    55.33    59.21    63.29    67.89    
 73.18    78.86    85.02    91.80    99.18    107.24   116.46   125.68   134.88   144.94   
 155.12   165.64   176.12   186.86   197.48   207.92   218.44   228.44   238.28   247.60   
 256.36   264.74   272.27   279.66   285.89   291.22   295.44   298.56   300.60   301.53   
 301.27   299.76   297.10   293.32   288.52   282.87   276.27   268.80   260.71   251.76   
 211.16   
256819.66 256170.57 255270.22 253320.75 247089.35 240857.97 234603.69 226527.79 217926.15 207095.75 
 195521.05 183796.56 169721.12 155696.84 140582.08 126404.46 112859.80 99881.35 88502.49 78148.92 
 69827.18 62870.80 57328.28 52525.63 48542.03 44970.90 41523.49 38415.25 35644.39 33067.83 
 30722.86 28575.89 26488.63 24755.80 23024.85 21462.98 19950.90 18478.13 17216.26 16103.50 
 14888.13 13838.09 12831.02 11906.04 10931.92 10019.52 9197.78  8412.24  7712.60  7060.02  
 6453.50  5910.39  5428.05  4988.98  4594.84  4234.20  3902.33  3608.66  3329.38  3069.79  
 2832.73  2595.67  2358.90  2145.13  1951.84  1767.48  1598.09  1438.56  1287.88  1148.96  
 1021.74  900.11   787.64   686.54   593.92   508.00   428.20   356.61   302.07   247.54   
 193.18   153.48   120.54   92.88    59.11    24.38    6.66     4.38     3.70     3.28     
 2.96     2.73     2.51     2.54     2.48     2.22     1.54     1.63     1.68     1.68     
 1.66     1.66     1.72     1.76     1.82     1.88     1.87     1.95     2.11     2.13     
 2.21     2.37     2.45     2.54     2.68     2.85     3.09     3.25     3.40     3.56     
 3.74     3.94     4.18     4.45     4.75     5.07     5.44     5.82     6.25     6.76     
 7.28     7.85     8.48     9.10     9.79     10.54    11.39    12.35    13.40    14.54    
 15.80    17.21    18.77    20.52    22.39    24.46    26.72    29.15    31.71    34.48    
 37.33    40.36    43.60    47.09    50.74    54.61    58.77    63.22    67.94    72.74    
 77.75    82.90    88.25    94.03    99.76    105.60   111.63   118.09   125.22   132.29   
 140.06   148.37   156.70   165.81   175.18   184.91   194.81   204.60   214.51   224.00   
 211.16   
256819.66 257024.42 256945.80 255541.60 251118.52 244364.08 238374.74 230911.94 222994.45 213550.89 
 202330.75 190293.57 177487.94 163393.02 148766.39 134456.54 121188.31 109170.30 97164.63 86798.20 
 77951.94 70832.71 65254.26 60385.89 56184.36 52300.77 48988.77 45914.01 42880.62 40127.59 
 37661.34 35249.81 33018.87 30933.69 29025.96 27388.11 25736.44 24204.88 22746.36 21428.37 
 20175.77 18927.80 17731.88 16560.47 15561.41 14495.80 13521.73 12588.49 11782.75 10978.00 
 10173.25 9435.64  8787.49  8261.49  7782.05  7295.73  6853.59  6441.87  6069.80  5717.55  
 5380.89  5054.99  4750.18  4467.06  4188.62  3919.95  3664.76  3426.75  3193.34  2972.56  
 2766.51  2579.67  2399.97  2218.61  2049.40  1896.13  1757.61  1618.01  1487.33  1368.91  
 1262.36  1170.24  1078.24  986.24   904.55   829.02   758.93   696.45   642.42   595.76   
 548.78   503.62   462.07   423.74   388.19   355.38   324.59   298.85   275.81   253.55   
 229.36   210.41   193.25   177.67   162.64   148.35   134.46   121.65   108.84   97.77    
 87.20    78.85    71.09    62.80    54.91    46.59    38.84    32.26    26.71    13.70    
 4.91     3.82     3.79     3.95     4.17     4.43     4.67     4.99     5.33     5.69     
 6.20     6.88     7.54     8.33     9.64     10.88    10.84    10.89    11.34    12.12    
 13.12    14.14    15.32    17.40    18.88    20.22    21.80    23.67    25.68    27.92    
 30.33    32.87    34.67    37.36    40.59    43.94    47.52    51.28    55.30    59.51    
 63.99    68.75    73.71    78.98    84.45    90.21    96.13    102.33   108.80   116.78   
 123.68   131.57   140.31   149.41   159.01   169.13   179.71   190.50   201.08   211.88   
 211.16   
256819.66 257949.54 258949.81 259086.81 257119.03 252776.25 246825.82 240875.37 234904.16 226900.50 
 217525.92 206593.66 193825.83 179037.15 163838.36 149735.92 135565.72 122055.12 109006.98 97535.80 
 88342.03 80959.01 74787.35 69450.96 64537.63 60316.62 56594.74 53238.18 50069.22 46915.87 
 44052.24 41475.33 39167.86 37025.39 34996.70 33142.95 31227.58 29505.22 27906.87 26337.69 
 24868.63 23400.69 22044.15 20781.72 19457.14 18226.67 17049.66 15948.04 14892.17 13908.04 
 12969.93 12092.27 11263.35 10454.47 9730.43  9079.48  8484.39  7961.81  7480.59  7040.73  
 6644.20  6251.58  5880.98  5526.51  5200.17  4890.90  4594.34  4311.97  4031.74  3761.62  
 3490.85  3234.06  2996.21  2786.44  2576.67  2367.13  2179.97  2007.26  1848.71  1697.05  
 1557.54  1433.27  1322.64  1223.95  1130.06  1043.88  965.17   894.65   830.30   780.97   
 729.37   677.33   629.39   585.52   546.52   511.19   479.59   451.25   425.81   400.19   
 381.17   363.61   348.38   334.34   321.62   310.53   300.24   291.30   283.02   274.81   
 267.74   262.40   256.48   249.47   241.59   233.73   226.39   218.52   210.57   202.17   
 193.33   184.78   175.44   165.45   156.15   146.46   136.13   126.06   115.04   103.22   
 88.46    67.97    48.42    30.60    22.40    22.28    18.41    10.20    7.18     7.69     
 8.37     9.16     10.04    11.06    12.24    13.55    14.98    16.57    18.41    20.67    
 23.07    25.77    29.34    41.86    38.66    34.94    37.98    41.18    44.68    48.39    
 52.42    56.63    61.07    65.88    70.89    76.28    81.89    87.82    94.60    100.74   
 108.04   116.19   125.02   134.71   144.12   154.27   164.82   175.59   186.83   198.37   
 211.16   
256819.66 258876.75 260893.57 262269.79 262800.42 261446.73 257519.65 252129.33 245446.56 237472.94 
 228448.32 217775.14 204968.05 190623.06 175185.34 159659.03 144733.30 130769.75 118972.64 107654.09 
 96339.88 88850.32 82865.19 77600.15 72852.73 68501.30 64504.92 60821.31 57273.62 54010.64 
 50850.21 47994.21 45312.76 42744.71 40289.52 37999.15 35854.08 33806.12 31776.45 29908.95 
 28047.08 26141.34 24350.96 22641.55 20976.79 19484.24 18097.08 16766.75 15648.80 14588.50 
 13643.22 12752.08 11841.50 11123.43 10407.17 9744.46  9129.61  8597.41  8095.08  7624.20  
 7141.40  6681.26  6256.03  5872.02  5496.90  5136.84  4792.71  4464.52  4124.31  3818.04  
 3546.90  3294.28  3048.96  2810.72  2589.13  2387.53  2187.74  2004.97  1832.48  1675.47  
 1532.37  1401.13  1281.75  1187.35  1093.14  998.92   919.61   846.40   783.89   738.35   
 691.57   640.19   597.02   558.62   527.25   499.03   474.80   453.09   435.24   419.30   
 405.21   393.18   382.31   372.84   363.95   354.93   347.90   340.43   333.87   326.31   
 319.01   312.01   306.33   299.95   293.36   287.37   282.13   277.13   271.94   267.23   
 262.87   258.65   254.77   249.86   244.28   238.30   232.32   226.51   220.50   214.26   
 207.49   198.54   189.78   181.25   172.54   163.66   154.51   144.18   133.06   120.22   
 107.36   90.93    52.62    20.59    15.93    15.15    14.35    13.78    15.38    17.29    
 19.36    21.55    23.98    26.62    29.31    32.04    35.07    38.44    42.14    46.79    
 65.70    52.99    56.46    61.06    66.01    71.35    76.77    82.49    88.51    94.82    
