IESNA:LM-63-2002
[TEST] 1
[TESTLAB] AOK
[TESTDATE] 2022-05-13
[ISSUEDATE] 2022-05-13 18:40:16
[NEARFIELD] 
[LAMPPOSITION] 0,0
[OTHER] EVERFINE GO-2000A_V1 SYSTEM
[MANUFAC] AOK
[LUMCAT] A
[LUMINAIRE] AOK-400WiSF-HVY-S5-00-5070-30D-P
[LAMPCAT] B
[LAMP] 5050
[BALLAST] E
[BALLASTCAT] F
[OTHER] 
[OTHER] Gamma(deg)    Fz(lm)      Ft(lm)     %Lum    %Lamp
[OTHER]   0- 10     11048.27    11048.27    20.03    20.03
[OTHER]  10- 20     16615.78    27664.05    50.15    50.15
[OTHER]  20- 30     10143.02    37807.07    68.54    68.54
[OTHER]  30- 40      7133.18    44940.25    81.47    81.47
[OTHER]  40- 50      4512.42    49452.67    89.65    89.65
[OTHER]  50- 60      2580.10    52032.77    94.33    94.33
[OTHER]  60- 70      1528.90    53561.67    97.10    97.10
[OTHER]  70- 80       729.04    54290.71    98.43    98.43
[OTHER]  80- 90       299.39    54590.11    98.97    98.97
[OTHER]  90-100       152.53    54742.64    99.25    99.25
[OTHER] 100-110       104.50    54847.14    99.43    99.43
[OTHER] 110-120        82.82    54929.95    99.58    99.58
[OTHER] 120-130        64.22    54994.17    99.70    99.70
[OTHER] 130-140        49.26    55043.43    99.79    99.79
[OTHER] 140-150        41.15    55084.58    99.87    99.87
[OTHER] 150-160        37.74    55122.32    99.93    99.93
[OTHER] 160-170        26.92    55149.24    99.98    99.98
[OTHER] 170-180         9.69    55158.94   100.00   100.00
[OTHER] 
TILT=NONE
1 55159 1 181 25 1 2 0.150 0.200 0.000
1.000 1 397.927
0.0    1.0    2.0    3.0    4.0    5.0    6.0    7.0    8.0    9.0    
 10.0   11.0   12.0   13.0   14.0   15.0   16.0   17.0   18.0   19.0   
 20.0   21.0   22.0   23.0   24.0   25.0   26.0   27.0   28.0   29.0   
 30.0   31.0   32.0   33.0   34.0   35.0   36.0   37.0   38.0   39.0   
 40.0   41.0   42.0   43.0   44.0   45.0   46.0   47.0   48.0   49.0   
 50.0   51.0   52.0   53.0   54.0   55.0   56.0   57.0   58.0   59.0   
 60.0   61.0   62.0   63.0   64.0   65.0   66.0   67.0   68.0   69.0   
 70.0   71.0   72.0   73.0   74.0   75.0   76.0   77.0   78.0   79.0   
 80.0   81.0   82.0   83.0   84.0   85.0   86.0   87.0   88.0   89.0   
 90.0   91.0   92.0   93.0   94.0   95.0   96.0   97.0   98.0   99.0   
 100.0  101.0  102.0  103.0  104.0  105.0  106.0  107.0  108.0  109.0  
 110.0  111.0  112.0  113.0  114.0  115.0  116.0  117.0  118.0  119.0  
 120.0  121.0  122.0  123.0  124.0  125.0  126.0  127.0  128.0  129.0  
 130.0  131.0  132.0  133.0  134.0  135.0  136.0  137.0  138.0  139.0  
 140.0  141.0  142.0  143.0  144.0  145.0  146.0  147.0  148.0  149.0  
 150.0  151.0  152.0  153.0  154.0  155.0  156.0  157.0  158.0  159.0  
 160.0  161.0  162.0  163.0  164.0  165.0  166.0  167.0  168.0  169.0  
 170.0  171.0  172.0  173.0  174.0  175.0  176.0  177.0  178.0  179.0  
 180.0  
0.0    15.0   30.0   45.0   60.0   75.0   90.0   105.0  120.0  135.0  
 150.0  165.0  180.0  195.0  210.0  225.0  240.0  255.0  270.0  285.0  
 300.0  315.0  330.0  345.0  360.0  
128891.87 126757.15 126445.80 126158.15 115658.25 99291.81 87351.00 75751.09 60283.11 52035.47 
 37931.92 26701.39 15923.23 12687.34 9533.78  6380.22  3226.65  73.09    24.84    20.19    
 17.55    15.80    14.45    12.77    11.17    10.02    9.18     8.71     8.62     8.66     
 8.45     6.94     5.93     5.54     5.54     5.66     5.87     6.04     5.82     5.68     
 5.48     5.38     5.23     5.15     4.90     4.76     4.82     4.84     4.71     4.43     
 4.18     4.15     4.04     3.94     3.90     3.87     3.75     3.64     3.54     3.41     
 3.32     3.28     3.25     3.18     3.10     3.01     2.94     2.87     2.81     2.73     
 2.65     2.60     2.56     2.52     2.50     2.49     2.48     2.48     2.49     2.50     
 2.54     2.59     2.65     2.74     2.92     3.08     3.18     3.28     3.36     3.45     
 3.56     3.68     3.79     3.84     3.91     4.00     4.12     4.26     4.45     4.67     
 4.94     5.22     5.52     5.85     6.22     6.62     7.02     7.44     7.85     8.31     
 8.79     9.29     9.80     10.38    11.01    11.68    12.40    13.17    14.03    14.94    
 15.89    16.88    17.97    19.15    20.39    21.69    23.08    24.57    26.17    27.85    
 29.61    31.42    33.29    35.28    37.41    39.66    42.02    44.51    47.16    49.98    
 52.99    56.41    60.20    64.32    68.77    73.51    78.51    83.86    89.63    95.60    
 101.62   107.68   113.84   119.83   125.72   131.17   136.34   141.19   145.67   149.86   
 153.66   157.13   159.93   161.94   163.06   163.17   162.43   160.62   157.89   154.41   
 150.31   145.81   141.09   136.30   131.33   126.31   121.08   115.52   109.52   103.01   
 95.17    
128891.87 126221.10 125744.03 125283.37 122121.53 102065.90 91622.76 80799.37 66292.05 57881.91 
 43414.17 32719.27 22024.37 11329.46 728.71   599.99   543.51   279.49   220.85   204.41   
 187.96   171.14   107.82   140.51   110.64   61.24    32.27    24.04    18.91    15.95    
 13.69    11.70    9.84     8.35     7.70     7.26     7.01     6.93     6.91     6.73     
 6.42     6.18     5.89     5.64     5.46     5.23     4.98     4.80     4.61     4.38     
 4.16     4.03     3.89     3.75     3.59     3.45     3.32     3.19     3.09     3.01     
 2.92     2.85     2.78     2.71     2.65     2.59     2.55     2.52     2.47     2.41     
 2.36     2.32     2.26     2.21     2.20     2.19     2.19     2.19     2.20     2.22     
 2.23     2.25     2.28     2.32     2.38     2.45     2.52     2.61     2.70     2.81     
 2.94     3.06     3.18     3.31     3.46     3.62     3.80     3.98     4.19     4.42     
 4.68     4.95     5.25     5.57     5.91     6.26     6.63     7.03     7.45     7.90     
 8.40     8.90     9.45     10.01    10.61    11.27    11.99    12.77    13.57    14.42    
 15.38    16.40    17.50    18.63    19.84    21.14    22.55    24.05    25.63    27.27    
 28.99    30.77    32.67    34.62    36.66    38.82    41.14    43.56    46.10    48.90    
 52.02    55.39    59.02    63.03    67.39    72.09    77.07    82.43    88.05    94.02    
 100.06   106.22   112.15   118.23   124.06   129.60   134.88   139.73   144.40   148.69   
 152.67   156.29   159.20   161.35   162.62   162.89   162.33   160.84   158.44   155.45   
 151.81   147.77   143.61   139.31   134.76   130.10   124.93   119.21   112.93   106.02   
 95.17    
128891.87 126303.83 125606.94 125052.66 124247.67 111780.99 97162.67 86896.02 77705.67 62091.99 
 53991.13 41368.94 32404.18 22453.76 14247.69 10818.79 7439.49  4060.18  680.88   546.70   
 345.46   225.82   235.72   170.71   152.13   150.05   129.50   108.76   88.02    66.25    
 64.50    54.33    43.91    44.49    37.77    31.62    32.73    27.26    26.28    24.05    
 23.79    23.42    21.17    18.29    17.52    15.89    14.45    13.02    12.68    10.77    
 9.34     8.71     7.14     6.05     5.50     5.23     5.01     4.66     4.28     3.94     
 3.62     3.36     3.15     3.01     2.89     2.74     2.59     2.46     2.37     2.30     
 2.23     2.19     2.16     2.13     2.11     2.09     2.07     2.04     2.02     2.00     
 2.00     2.00     2.03     2.09     2.15     2.23     2.32     2.42     2.52     2.64     
 2.78     2.92     3.08     3.25     3.42     3.61     3.81     4.02     4.24     4.46     
 4.70     4.96     5.22     5.48     5.77     6.11     6.45     6.83     7.22     7.64     
 8.11     8.61     9.13     9.69     10.30    10.96    11.68    12.43    13.22    14.08    
 15.02    16.00    17.04    18.15    19.36    20.62    21.97    23.39    24.87    26.41    
 28.03    29.74    31.56    33.46    35.47    37.57    39.85    42.34    45.01    47.86    
 50.98    54.34    58.09    62.20    66.61    71.34    76.39    81.66    87.23    93.02    
 98.94    104.88   110.73   116.60   122.43   127.92   133.18   138.25   143.19   147.67   
 151.65   155.01   157.63   159.56   160.79   161.27   160.84   159.74   158.04   155.62   
 152.75   149.46   146.02   142.48   138.29   133.59   128.17   122.75   116.97   110.90   
 95.17    
128891.87 126862.95 125239.44 124603.94 123784.05 122494.80 114728.41 99173.23 88566.16 77047.05 
 69245.55 56386.33 46008.00 40389.39 29262.44 22691.11 16146.28 12376.19 6778.62  1220.75  
 999.53   738.05   481.49   355.78   309.61   249.97   190.46   144.91   110.86   91.69    
 79.84    70.74    63.77    57.59    52.49    47.76    43.12    39.67    35.99    32.32    
 28.83    24.93    22.31    20.78    19.82    18.67    17.71    16.70    15.59    14.40    
 13.19    12.08    11.02    9.98     9.04     8.29     7.73     7.26     6.79     6.35     
 5.95     5.55     5.19     4.86     4.59     4.35     4.13     3.91     3.69     3.46     
 3.24     3.02     2.83     2.66     2.51     2.38     2.27     2.16     2.07     1.99     
 1.90     1.87     1.87     1.90     1.96     2.03     2.12     2.21     2.31     2.43     
 2.56     2.69     2.83     2.98     3.15     3.31     3.48     3.67     3.86     4.07     
 4.29     4.52     4.76     5.03     5.31     5.61     5.94     6.30     6.67     7.07     
 7.54     8.03     8.54     9.08     9.64     10.26    10.93    11.65    12.40    13.19    
 14.02    14.96    15.95    16.96    18.01    19.13    20.32    21.61    22.96    24.39    
 25.89    27.48    29.19    30.98    32.85    34.91    37.15    39.52    41.99    44.77    
 47.87    51.18    54.73    58.60    62.79    67.38    72.15    77.25    82.52    88.03    
 93.71    99.44    105.14   111.03   116.81   122.48   127.90   132.95   137.77   142.06   
 145.85   149.17   151.85   153.96   155.44   156.36   156.62   156.29   155.29   153.85   
 152.00   149.63   147.35   144.37   140.83   136.91   132.61   127.51   122.36   117.25   
 95.17    
128891.87 127456.47 125639.77 124465.22 123516.91 121213.52 117850.36 113695.92 109836.85 97195.94 
 84016.02 74983.32 66170.28 56407.71 49482.02 40463.46 31009.63 25782.30 22078.80 15554.68 
 12066.27 9451.27  6846.09  5678.29  3687.97  1254.10  992.74   754.20   557.87   408.71   
 306.66   235.32   194.18   167.92   145.07   124.27   108.18   92.14    79.12    68.25    
 58.79    50.69    44.35    38.81    34.42    30.84    27.55    25.03    22.48    19.87    
 16.82    14.32    12.83    11.96    11.22    10.53    9.94     9.44     8.93     8.44     
 7.97     7.57     7.21     6.88     6.59     6.31     6.06     5.85     5.66     5.50     
 5.35     5.18     4.99     4.78     4.54     4.30     4.02     3.73     3.43     3.11     
 2.82     2.47     2.16     2.05     2.04     2.07     2.15     2.24     2.33     2.44     
 2.54     2.66     2.79     2.94     3.08     3.24     3.40     3.58     3.77     3.98     
 4.20     4.43     4.68     4.94     5.23     5.54     5.86     6.20     6.57     6.98     
 7.41     7.85     8.32     8.81     9.35     9.92     10.54    11.17    11.85    12.61    
 13.40    14.23    15.08    15.99    16.95    17.97    19.06    20.24    21.48    22.80    
 24.18    25.62    27.16    28.80    30.60    32.55    34.60    36.83    39.29    41.98    
 44.91    48.13    51.62    55.41    59.50    63.96    68.70    73.65    78.74    83.96    
 89.51    95.07    100.60   106.10   111.67   117.06   122.14   126.93   131.56   135.98   
 139.88   143.40   146.44   149.15   151.28   152.91   154.03   154.59   155.15   154.44   
 152.90   151.27   149.73   147.32   144.54   141.34   137.86   133.84   129.37   125.09   
 95.17    
128891.87 128240.73 127217.94 125800.33 124021.64 120884.61 117339.89 113722.88 109910.48 104746.96 
 99634.95 94085.73 86852.79 79772.90 72273.36 64714.42 57488.81 48269.77 40139.32 33275.61 
 28023.74 24696.01 21370.96 18377.81 15916.04 13956.46 12560.95 11115.21 9559.06  7712.86  
 6661.20  5833.90  5086.18  4397.75  3526.27  3000.87  2625.74  2249.46  1748.31  1425.96  
 1160.44  893.95   642.25   499.30   412.82   328.71   257.97   187.53   150.94   119.72   
 95.84    78.35    65.27    54.60    47.46    40.84    35.76    31.81    28.01    25.26    
 22.79    21.00    19.40    17.75    16.23    14.54    13.00    12.03    11.68    11.46    
 11.31    11.12    10.98    10.74    10.53    10.31    10.17    9.96     9.74     9.35     
 8.60     7.54     6.12     4.42     2.11     1.71     1.75     1.82     1.88     1.96     
 2.04     2.13     2.22     2.34     2.46     2.59     2.72     2.87     3.03     3.20     
 3.37     3.56     3.75     3.97     4.22     4.46     4.72     5.01     5.33     5.65     
 6.00     6.38     6.80     7.25     7.73     8.23     8.77     9.32     9.89     10.50    
 11.16    11.86    12.63    13.42    14.23    15.10    16.07    17.08    18.16    19.27    
 20.46    21.72    23.10    24.55    26.11    27.76    29.63    31.60    33.74    36.11    
 38.79    41.67    44.76    48.26    52.01    56.10    60.44    65.03    69.84    75.00    
 80.23    85.66    90.97    96.50    101.97   107.39   112.75   117.86   122.99   127.85   
 132.48   136.82   140.82   144.57   147.82   150.71   153.04   155.41   156.61   157.11   
 156.60   156.07   155.41   153.72   151.54   149.03   146.14   142.74   138.90   134.91   
 95.17    
128891.87 128813.59 128541.18 127923.16 126866.55 124239.80 120771.44 117099.79 113298.23 108176.48 
 102938.57 97219.64 91012.41 84367.55 76874.04 68965.97 61499.16 54830.28 48667.28 42774.26 
 37737.45 33439.76 30039.83 27535.80 25402.63 23274.47 21572.95 19906.79 18508.43 17217.97 
 15928.38 14852.84 13743.06 12815.87 11901.58 11099.55 10384.91 9656.25  8964.63  8316.11  
 7712.97  7113.66  6533.97  5987.77  5491.22  5051.43  4622.02  4221.67  3833.99  3465.68  
 3139.84  2873.65  2607.46  2341.81  2129.22  1948.75  1772.67  1618.83  1481.19  1350.21  
 1229.88  1114.99  1012.90  916.35   824.04   741.39   663.52   591.69   521.09   457.14   
 399.44   351.42   307.21   269.67   232.13   194.68   165.03   141.62   121.81   106.02   
 90.74    77.24    65.66    54.56    43.87    30.70    4.80     2.36     1.22     1.03     
 0.98     0.96     0.95     0.86     0.87     0.88     0.88     0.91     0.92     0.94     
 0.96     0.98     1.00     1.02     1.04     1.07     1.11     1.14     1.17     1.20     
 1.24     1.28     1.33     1.38     1.44     1.49     1.55     1.62     1.70     1.78     
 1.87     1.97     2.08     2.19     2.33     2.47     2.63     2.79     2.97     3.17     
 3.39     3.62     3.88     4.17     4.46     4.80     5.17     5.57     6.02     6.53     
 7.09     7.68     8.33     9.03     9.78     10.62    11.54    12.51    13.54    14.65    
 15.83    17.04    18.32    19.71    21.12    22.60    24.19    25.89    27.70    29.60    
 31.57    33.61    35.73    37.97    40.31    42.79    45.42    48.42    51.42    54.73    
 57.64    61.16    65.60    70.39    75.41    80.67    85.95    91.35    97.09    103.04   
 95.17    
128891.87 129654.72 130141.81 130129.66 129536.93 127600.52 124656.97 121139.97 117458.74 113092.99 
 108343.67 102816.26 96841.06 90297.69 83224.92 75802.03 68745.78 62141.30 55914.34 49992.71 
 44467.03 40116.65 36535.55 33513.39 31088.13 28938.07 27100.34 25460.39 23880.92 22425.07 
 21065.69 19802.51 18619.64 17520.91 16470.59 15535.94 14638.01 13823.88 13032.44 12314.40 
 11608.62 10902.96 10197.29 9550.02  8912.14  8298.91  7716.51  7156.13  6640.26  6167.07  
 5716.00  5303.69  4929.18  4584.01  4277.36  4013.73  3764.18  3539.32  3340.86  3153.10  
 2966.62  2801.17  2641.87  2483.83  2328.62  2184.70  2043.71  1910.80  1778.76  1649.15  
 1528.43  1417.85  1313.69  1214.11  1119.01  1023.95  938.83   859.44   785.26   717.98   
 653.44   596.35   540.96   489.90   446.09   406.68   372.04   341.78   315.15   292.68   
 274.06   256.55   238.23   222.21   206.90   192.97   180.28   169.06   158.65   148.37   
 139.56   131.38   123.68   116.57   109.47   103.38   98.12    93.19    88.58    84.81    
 80.94    77.39    74.37    71.30    67.87    64.71    61.72    58.46    55.36    52.36    
 49.55    46.50    43.73    41.10    38.13    35.21    32.31    29.32    25.97    22.45    
 18.48    13.92    10.42    7.93     6.14     4.67     3.70     3.61     3.91     4.28     
 4.70     5.16     5.65     6.20     6.80     7.43     8.12     8.87     9.65     10.47    
 11.34    12.24    13.20    14.21    15.29    16.41    17.61    18.90    20.25    21.68    
 23.20    24.82    26.51    28.41    30.49    32.73    35.10    37.58    40.36    43.92    
 46.68    50.66    54.68    59.31    64.55    70.06    75.83    81.94    88.22    94.87    
 95.17    
128891.87 130411.61 131537.16 132181.40 132350.72 131918.79 130605.92 128546.15 126000.09 122851.00 
 118885.17 114254.84 108725.09 101882.85 94379.10 86929.64 79380.18 71763.35 64783.16 58342.10 
 52576.92 47826.75 44086.62 40902.53 38127.30 35385.51 33128.26 30949.97 29068.85 27191.68 
 25624.67 24057.65 22492.34 21089.14 19872.63 18699.05 17588.26 16588.47 15661.98 14716.09 
 13826.84 13002.97 12229.04 11519.08 10844.43 10125.71 9494.81  8841.78  8222.93  7639.69  
 7110.10  6599.03  6123.49  5663.33  5249.97  4890.53  4569.33  4287.02  4030.71  3796.81  
 3588.80  3395.65  3201.36  3012.77  2830.52  2670.10  2509.78  2358.33  2208.85  2064.48  
 1924.71  1785.50  1647.05  1524.15  1406.83  1292.55  1184.31  1082.75  989.58   903.26   
 817.56   737.35   667.49   605.71   549.99   498.42   457.25   425.20   396.19   365.15   
 345.36   326.02   307.25   288.80   272.80   258.72   246.07   233.41   220.77   210.23   
 200.93   192.68   184.90   177.71   170.88   165.20   159.35   154.14   149.16   144.61   
 140.49   136.69   132.83   129.02   125.53   122.25   119.12   116.16   112.98   109.98   
 107.30   104.69   102.14   99.63    97.04    94.60    92.08    89.40    87.00    84.33    
 81.56    79.18    76.24    73.69    71.20    68.73    65.96    62.87    60.03    57.11    
 54.19    51.27    47.90    44.72    42.03    38.15    34.25    31.45    14.58    10.81    
 9.17     9.20     10.01    11.02    12.07    13.15    14.29    15.47    16.75    18.10    
 19.47    20.80    22.21    23.82    25.60    27.50    29.57    31.77    34.15    36.75    
 39.65    43.37    47.17    51.87    56.82    62.35    68.37    74.79    81.75    88.85    
 95.17    
128891.87 130957.45 132594.46 134049.21 135307.85 136351.52 136988.13 136625.35 134753.64 131721.24 
 127809.29 123032.23 117358.39 110739.83 103505.87 95591.66 87654.18 79635.52 71881.72 64392.29 
 58162.96 53076.13 49043.32 45496.01 42357.77 39500.91 36928.34 34535.36 32268.01 30132.75 
 28339.85 26570.02 24871.80 23344.88 21938.56 20632.53 19426.61 18237.38 17162.47 16053.79 
 15008.19 14010.81 13065.45 12140.41 11317.46 10495.41 9779.77  9135.87  8544.51  7970.06  
 7441.50  6978.96  6561.70  6172.60  5793.83  5434.45  5101.40  4796.35  4521.73  4253.80  
 4021.77  3767.74  3544.20  3335.44  3135.26  2943.61  2758.07  2579.82  2403.65  2230.32  
 2071.51  1922.07  1782.76  1644.34  1511.97  1390.91  1268.35  1163.25  1058.32  953.38   
 866.06   786.03   711.18   641.68   581.54   533.53   491.31   454.38   416.20   388.40   
 368.19   349.61   330.86   313.07   296.89   282.49   270.89   260.78   252.11   244.37   
 236.98   230.55   224.73   219.40   213.94   208.78   204.33   200.48   196.80   193.22   
 189.68   186.53   183.21   179.76   176.91   174.07   171.15   168.49   165.60   162.81   
 159.97   157.30   154.72   152.01   148.87   146.07   142.97   139.95   136.99   133.93   
 130.53   127.14   123.74   120.57   117.28   113.72   110.49   107.14   103.45   99.46    
 95.60    91.03    86.45    82.64    78.85    77.17    75.55    71.23    67.42    64.11    
 60.19    56.35    53.06    48.54    45.80    43.22    24.21    17.77    16.07    17.63    
 17.90    18.75    20.39    22.23    24.16    26.11    27.98    29.78    31.85    34.12    
 36.67    39.63    43.16    47.15    51.70    56.85    63.06    69.55    76.47    83.86    
 95.17    
