IESNA:LM-63-2002
[TEST] 1
[TESTLAB] AOK
[TESTDATE] 2022-05-30
[ISSUEDATE] 2022-05-31 09:02:13
[NEARFIELD] 
[LAMPPOSITION] 0,0
[OTHER] EVERFINE GO-2000A_V1 SYSTEM
[MANUFAC] AOK
[LUMCAT] A
[LUMINAIRE] AOK-800WiSF-HV-S35-00-5070-15D-P
[LAMPCAT] B
[LAMP] 5050
[BALLAST] E
[BALLASTCAT] F
[OTHER] 
[OTHER] Gamma(deg)    Fz(lm)      Ft(lm)     %Lum    %Lamp
[OTHER]   0- 10     49599.04    49599.04    46.08    46.08
[OTHER]  10- 20     28600.37    78199.41    72.66    72.66
[OTHER]  20- 30     10384.93    88584.33    82.31    82.31
[OTHER]  30- 40      5469.43    94053.76    87.39    87.39
[OTHER]  40- 50      4480.42    98534.18    91.55    91.55
[OTHER]  50- 60      3661.25   102195.43    94.95    94.95
[OTHER]  60- 70      2619.32   104814.75    97.39    97.39
[OTHER]  70- 80      1399.19   106213.94    98.69    98.69
[OTHER]  80- 90       566.85   106780.79    99.21    99.21
[OTHER]  90-100       251.46   107032.25    99.45    99.45
[OTHER] 100-110       150.30   107182.55    99.59    99.59
[OTHER] 110-120       112.60   107295.16    99.69    99.69
[OTHER] 120-130        84.10   107379.26    99.77    99.77
[OTHER] 130-140        56.86   107436.12    99.82    99.82
[OTHER] 140-150        40.58   107476.70    99.86    99.86
[OTHER] 150-160        57.10   107533.80    99.91    99.91
[OTHER] 160-170        68.57   107602.37    99.98    99.98
[OTHER] 170-180        23.37   107625.75   100.00   100.00
[OTHER] 
TILT=NONE
1 1.0763e+005 1 181 25 1 2 0.150 0.200 0.000
1.000 1 807.736
0.0    1.0    2.0    3.0    4.0    5.0    6.0    7.0    8.0    9.0    
 10.0   11.0   12.0   13.0   14.0   15.0   16.0   17.0   18.0   19.0   
 20.0   21.0   22.0   23.0   24.0   25.0   26.0   27.0   28.0   29.0   
 30.0   31.0   32.0   33.0   34.0   35.0   36.0   37.0   38.0   39.0   
 40.0   41.0   42.0   43.0   44.0   45.0   46.0   47.0   48.0   49.0   
 50.0   51.0   52.0   53.0   54.0   55.0   56.0   57.0   58.0   59.0   
 60.0   61.0   62.0   63.0   64.0   65.0   66.0   67.0   68.0   69.0   
 70.0   71.0   72.0   73.0   74.0   75.0   76.0   77.0   78.0   79.0   
 80.0   81.0   82.0   83.0   84.0   85.0   86.0   87.0   88.0   89.0   
 90.0   91.0   92.0   93.0   94.0   95.0   96.0   97.0   98.0   99.0   
 100.0  101.0  102.0  103.0  104.0  105.0  106.0  107.0  108.0  109.0  
 110.0  111.0  112.0  113.0  114.0  115.0  116.0  117.0  118.0  119.0  
 120.0  121.0  122.0  123.0  124.0  125.0  126.0  127.0  128.0  129.0  
 130.0  131.0  132.0  133.0  134.0  135.0  136.0  137.0  138.0  139.0  
 140.0  141.0  142.0  143.0  144.0  145.0  146.0  147.0  148.0  149.0  
 150.0  151.0  152.0  153.0  154.0  155.0  156.0  157.0  158.0  159.0  
 160.0  161.0  162.0  163.0  164.0  165.0  166.0  167.0  168.0  169.0  
 170.0  171.0  172.0  173.0  174.0  175.0  176.0  177.0  178.0  179.0  
 180.0  
0.0    15.0   30.0   45.0   60.0   75.0   90.0   105.0  120.0  135.0  
 150.0  165.0  180.0  195.0  210.0  225.0  240.0  255.0  270.0  285.0  
 300.0  315.0  330.0  345.0  360.0  
775516.75 779440.45 779442.58 777900.38 772111.10 709297.11 647115.61 581753.17 496378.10 413128.89 
 313439.88 224579.61 139796.28 113441.81 87724.96 62008.11 50083.10 40927.32 27641.17 20226.94 
 15721.63 11746.83 7777.87  3808.90  1383.88  920.82   478.64   36.46    23.23    19.43    
 17.81    16.25    14.90    13.61    12.08    10.59    9.29     8.22     7.57     7.31     
 7.12     7.09     6.90     6.56     6.33     6.24     6.19     5.98     5.97     5.81     
 5.30     4.89     4.58     4.30     4.23     4.11     4.04     4.03     4.00     3.97     
 3.93     3.92     3.90     3.87     3.87     3.88     3.88     3.88     3.88     3.89     
 3.89     3.89     3.89     3.90     3.90     3.90     3.90     3.89     3.87     3.85     
 3.85     3.86     3.86     3.92     3.98     4.06     4.17     4.28     4.40     4.52     
 4.68     4.83     5.01     5.22     5.42     5.62     5.86     6.09     6.33     6.58     
 6.80     7.07     7.33     7.60     7.92     8.26     8.60     8.96     9.33     9.70     
 10.10    10.53    10.96    11.43    11.91    12.40    12.89    13.42    13.98    14.57    
 15.18    15.80    16.46    17.16    17.85    18.55    19.29    20.10    20.96    21.88    
 22.85    23.90    25.07    26.41    27.94    29.64    31.55    33.68    36.13    38.96    
 42.11    45.65    49.60    54.03    59.02    64.60    70.88    77.95    86.23    96.10    
 107.83   121.44   137.12   155.34   175.57   197.37   220.73   245.98   271.25   295.83   
 319.63   342.17   363.52   382.59   398.84   410.27   417.03   418.92   416.10   409.35   
 399.19   387.09   373.64   359.31   344.72   328.62   311.16   292.05   271.46   249.51   
 226.52   
775516.75 780339.97 781282.46 779846.47 774674.20 739504.28 669457.24 606035.56 525548.31 434435.92 
 337165.25 256654.80 176243.20 107837.85 81676.49 64737.54 52261.45 42786.07 35482.62 27722.08 
 19982.70 14995.88 10119.78 6659.95  4591.54  2523.13  472.02   305.81   140.97   118.18   
 83.35    63.60    63.37    54.34    32.56    24.26    20.22    17.87    16.62    16.00    
 15.43    14.34    13.35    12.06    11.06    10.05    9.35     8.68     8.23     7.89     
 7.53     7.07     6.51     5.73     5.23     4.92     4.76     4.92     5.03     5.07     
 5.01     4.88     4.79     4.72     4.63     4.52     4.49     4.46     4.40     4.30     
 4.21     4.11     4.01     3.93     3.84     3.76     3.68     3.59     3.52     3.47     
 3.44     3.44     3.45     3.49     3.56     3.65     3.75     3.85     3.96     4.09     
 4.24     4.39     4.56     4.75     4.96     5.18     5.41     5.64     5.90     6.16     
 6.43     6.72     7.02     7.32     7.63     7.96     8.31     8.66     9.02     9.39     
 9.78     10.18    10.61    11.04    11.50    11.99    12.50    13.02    13.55    14.08    
 14.65    15.26    15.90    16.55    17.22    17.90    18.64    19.43    20.25    21.13    
 22.12    23.17    24.36    25.67    27.14    28.81    30.74    32.93    35.30    38.05    
 41.26    44.74    48.61    52.95    57.80    63.34    69.49    76.57    84.71    94.35    
 105.67   120.23   134.82   152.83   172.58   194.47   217.81   241.72   266.84   291.43   
 315.59   338.95   360.95   381.36   397.90   410.40   417.93   420.52   418.65   412.72   
 403.59   392.15   379.23   365.39   350.67   334.59   316.94   298.07   277.15   255.98   
 226.52   
775516.75 779875.29 780558.73 777458.83 770733.68 756121.46 696276.27 612481.50 523703.82 427072.61 
 327563.49 247522.28 177774.89 125221.29 92987.89 60969.35 49421.69 41236.72 35229.14 30261.49 
 26319.73 20843.65 15603.91 11496.70 8783.37  6085.20  3794.70  2330.16  1091.90  700.50   
 319.70   190.98   143.35   127.23   102.36   77.38    65.05    55.99    43.80    34.96    
 29.79    25.49    22.41    20.32    18.76    17.66    16.71    15.75    14.83    14.01    
 13.48    12.97    12.51    11.91    11.11    9.96     8.87     8.09     7.46     7.11     
 6.90     6.67     6.46     6.29     6.13     5.98     5.84     5.71     5.60     5.47     
 5.33     5.15     4.98     4.78     4.60     4.42     4.22     4.02     3.84     3.68     
 3.55     3.44     3.39     3.39     3.44     3.54     3.67     3.79     3.93     4.08     
 4.25     4.44     4.64     4.85     5.07     5.31     5.56     5.81     6.09     6.38     
 6.66     6.97     7.28     7.60     7.94     8.28     8.64     9.00     9.39     9.78     
 10.19    10.62    11.06    11.51    11.97    12.45    12.95    13.44    13.93    14.45    
 15.00    15.56    16.16    16.79    17.45    18.12    18.87    19.67    20.54    21.49    
 22.48    23.58    24.85    26.25    27.79    29.49    31.41    33.58    36.01    38.71    
 41.68    44.94    48.64    52.91    57.72    63.17    69.30    76.46    85.04    95.01    
 106.63   120.23   136.17   154.13   174.36   196.16   219.07   244.71   270.38   295.37   
 320.09   343.85   365.67   384.49   400.25   411.28   418.26   420.65   418.98   413.14   
 404.44   393.44   381.08   367.43   352.35   335.77   317.53   297.19   275.13   252.00   
 226.52   
775516.75 779241.61 779404.70 775107.60 764336.92 741426.08 699567.79 633819.66 526452.38 427410.66 
 328837.80 253809.41 179028.85 133504.46 96699.11 74151.49 57123.83 47142.91 34415.54 29165.52 
 25640.23 22118.84 19090.55 16269.21 13504.61 11196.60 8219.15  6509.05  4931.57  3789.32  
 2989.64  2191.79  1634.00  1094.64  568.45   430.79   293.13   156.35   117.28   93.96    
 79.82    66.99    57.56    50.07    43.94    38.45    34.42    30.20    27.36    25.34    
 22.90    21.44    20.38    19.95    19.10    18.06    17.05    16.20    15.61    15.10    
 14.25    12.98    10.93    8.91     8.22     7.86     7.56     7.30     7.12     6.93     
 6.73     6.52     6.30     6.06     5.79     5.50     5.17     4.83     4.47     4.11     
 3.78     3.50     3.28     3.18     3.21     3.32     3.44     3.57     3.72     3.89     
 4.08     4.27     4.47     4.69     4.94     5.19     5.46     5.73     6.02     6.32     
 6.62     6.94     7.28     7.62     7.99     8.35     8.72     9.10     9.50     9.89     
 10.29    10.72    11.16    11.59    12.05    12.55    13.06    13.56    14.07    14.59    
 15.14    15.72    16.33    16.94    17.56    18.23    18.94    19.73    20.54    21.43    
 22.41    23.47    24.63    25.92    27.31    28.88    30.64    32.57    34.69    37.10    
 39.90    43.01    46.54    50.61    55.28    60.79    67.16    74.65    83.48    94.03    
 106.37   121.76   137.19   156.09   176.44   198.78   222.69   247.10   272.81   297.91   
 322.51   345.48   366.06   384.26   398.89   409.70   416.41   419.06   417.58   412.58   
 404.50   394.22   381.88   367.55   351.94   333.60   313.42   292.38   270.05   247.62   
 226.52   
775516.75 777387.21 775006.43 766777.57 747039.72 706994.49 646348.98 574300.52 488289.31 396474.85 
 312628.09 230114.59 167212.39 128931.46 103172.67 77544.66 63443.34 49812.40 42691.67 36187.10 
 29106.07 24674.20 20413.31 16821.40 13712.64 11748.84 9797.27  7845.70  7016.52  6326.71  
 5796.71  5330.58  4863.18  4423.70  3902.71  3351.62  2822.50  2331.33  1889.60  1546.67  
 1253.56  995.87   738.61   518.83   344.66   242.97   175.47   135.96   113.89   92.00    
 77.88    66.74    60.26    55.59    49.13    43.84    39.81    36.19    32.75    29.62    
 27.68    25.87    24.10    22.94    21.70    20.55    19.38    18.03    16.04    12.22    
 10.21    9.42     8.93     8.58     8.26     7.87     7.47     7.04     6.55     5.98     
 5.35     4.71     4.15     3.69     3.56     3.60     3.72     3.87     4.02     4.20     
 4.38     4.58     4.79     5.02     5.26     5.52     5.78     6.05     6.34     6.65     
 6.96     7.27     7.60     7.95     8.30     8.67     9.05     9.43     9.83     10.25    
 10.66    11.10    11.54    12.00    12.48    12.97    13.47    13.96    14.46    14.98    
 15.52    16.07    16.65    17.25    17.86    18.49    19.17    19.91    20.70    21.54    
 22.42    23.39    24.42    25.61    26.96    28.48    30.12    32.00    34.11    36.53    
 39.33    42.55    46.27    50.56    55.62    61.75    69.02    77.49    87.54    99.13    
 113.14   128.91   146.46   165.45   186.32   208.91   233.64   258.39   282.87   306.78   
 329.16   349.91   368.45   384.36   397.27   406.49   412.27   413.60   411.52   406.09   
 397.65   386.04   372.26   357.06   340.10   321.16   301.84   282.00   261.80   241.47   
 226.52   
775516.75 775841.23 771395.54 758901.48 731214.97 680276.97 607509.68 526934.96 436108.11 346916.03 
 277486.92 208245.31 161829.97 125676.31 100586.69 82447.54 67838.47 56603.76 47990.47 41688.30 
 36051.39 31360.27 26867.05 22384.00 19113.38 16642.88 14689.52 13143.11 11925.38 10931.63 
 10060.34 9214.08  8490.37  7862.63  7268.17  6758.18  6274.66  5884.04  5508.51  5137.31  
 4793.87  4463.00  4169.95  3880.14  3587.20  3309.89  3051.77  2800.59  2549.40  2298.32  
 2058.21  1807.01  1549.27  1302.91  1056.58  826.43   629.73   481.30   381.53   309.17   
 258.90   208.75   170.64   137.41   112.56   93.55    78.57    66.21    56.16    47.26    
 39.99    34.36    29.76    26.48    23.62    21.46    19.00    16.14    11.84    10.22    
 9.43     8.42     7.18     5.55     3.95     3.22     3.27     3.37     3.48     3.61     
 3.76     3.91     4.09     4.29     4.51     4.74     4.98     5.23     5.50     5.78     
 6.05     6.34     6.64     6.96     7.28     7.62     7.97     8.35     8.74     9.15     
 9.56     9.99     10.46    10.93    11.40    11.90    12.42    12.94    13.45    13.96    
 14.50    15.08    15.67    16.27    16.89    17.56    18.28    19.00    19.82    20.68    
 21.60    22.61    23.68    24.81    26.08    27.49    29.16    31.01    33.08    35.43    
 38.06    41.06    44.87    49.27    54.58    61.08    68.73    78.00    88.89    101.77   
 117.81   133.86   152.00   172.43   194.03   216.75   240.44   263.73   287.50   310.11   
 331.35   350.64   367.46   382.32   393.87   402.66   407.94   409.81   408.28   403.53   
 396.30   386.29   373.41   358.02   341.57   324.37   306.08   287.82   267.98   248.18   
 226.52   
775516.75 775196.22 770761.91 759407.63 733406.04 682549.32 609458.89 525288.36 432374.25 342764.38 
 273683.23 204873.13 160706.16 125581.14 100242.06 81983.50 68245.05 57237.30 48400.65 41876.45 
 36375.41 31684.03 27594.42 24249.10 20914.78 18544.60 16744.41 15330.58 14225.94 13320.13 
 12488.89 11707.34 11077.52 10472.43 9935.81  9474.40  9059.18  8660.93  8302.94  7992.19  
 7690.74  7411.11  7156.74  6906.96  6645.04  6387.60  6108.13  5828.21  5542.68  5282.46  
 5035.92  4815.55  4615.75  4428.24  4241.09  4061.81  3883.34  3706.34  3520.38  3341.92  
 3165.80  2988.11  2810.88  2639.54  2468.27  2304.13  2135.97  1970.77  1810.81  1655.89  
 1506.46  1358.81  1219.01  1088.66  962.77   842.73   729.24   625.21   530.20   448.10   
 372.46   303.36   246.49   189.78   146.08   107.86   78.81    54.16    24.84    7.01     
 3.69     2.78     2.53     2.38     2.38     2.35     2.15     1.58     1.62     1.70     
 1.70     1.69     1.65     1.69     1.75     1.83     1.97     1.98     2.01     2.13     
 2.22     2.20     2.32     2.46     2.47     2.61     2.76     2.95     3.15     3.23     
 3.32     3.41     3.50     3.62     3.74     3.88     4.03     4.18     4.35     4.54     
 4.74     4.97     5.23     5.47     5.74     6.06     6.42     6.84     7.36     7.92     
 8.61     9.43     10.45    11.67    13.09    14.85    16.83    19.14    21.68    24.55    
 27.68    30.97    34.56    38.49    42.74    47.25    52.10    57.21    62.59    68.10    
 73.71    79.52    85.29    91.29    97.31    103.59   110.15   116.82   123.27   130.38   
 137.29   144.28   150.27   156.13   163.37   171.64   180.84   191.09   202.72   215.57   
 226.52   
775516.75 773188.36 766295.99 749757.46 715834.38 657747.20 574024.91 480615.01 390507.75 308898.07 
 241608.80 190175.83 152386.95 123849.19 103990.80 84200.18 70779.19 60683.68 52561.04 45782.20 
 39974.80 34644.09 30035.18 25732.87 22256.41 19575.09 17669.09 16303.78 15316.57 14485.03 
 13803.06 13188.75 12617.95 12145.03 11676.86 11339.73 11003.68 10711.42 10434.90 10198.01 
 9995.48  9800.40  9621.19  9423.55  9178.70  8912.88  8618.00  8324.47  8053.50  7791.42  
 7552.23  7323.62  7103.79  6890.77  6682.15  6470.02  6268.54  6059.62  5862.12  5650.87  
 5436.34  5227.10  5021.68  4813.92  4599.04  4386.45  4184.17  3989.49  3784.59  3564.97  
 3359.07  3163.58  2973.44  2767.81  2574.27  2389.94  2221.50  2047.67  1885.25  1728.48  
 1584.80  1457.06  1334.98  1217.22  1108.42  999.70   903.11   818.58   745.70   681.52   
 627.38   572.13   519.85   472.88   428.55   387.98   351.14   318.34   289.58   263.62   
 239.22   216.66   198.34   181.66   166.50   151.68   138.27   125.30   112.41   99.52    
 88.24    78.61    70.00    61.56    52.99    45.24    37.84    31.31    25.56    21.33    
 13.19    4.60     3.15     3.06     3.12     3.26     3.43     3.58     3.76     3.94     
 4.31     4.81     5.33     5.91     6.72     7.36     7.50     7.18     7.18     7.62     
 8.11     8.81     9.66     10.65    12.66    14.08    15.84    18.03    20.43    23.18    
 26.26    29.55    32.46    35.53    39.69    44.08    48.71    53.42    58.27    63.26    
 68.23    73.35    78.49    83.85    89.29    94.91    100.58   106.24   112.14   118.78   
 124.45   130.83   137.45   144.24   152.20   160.97   171.06   182.92   196.21   211.16   
 226.52   
775516.75 772343.85 764298.32 746513.60 710148.39 650162.45 566148.13 472354.95 382261.88 306211.87 
 251141.58 196277.82 160205.21 132490.20 110773.99 94790.60 82199.44 71936.57 63387.04 55995.81 
 49453.67 43143.68 37737.49 32896.00 28663.56 25493.56 22334.47 20092.27 18352.36 16976.66 
 15884.74 14993.75 14258.17 13697.93 13251.19 12873.38 12539.85 12240.15 11959.73 11672.97 
 11416.75 11170.01 10935.78 10713.27 10513.16 10299.29 10055.88 9789.11  9485.35  9196.17  
 8936.57  8705.01  8472.22  8235.65  7992.18  7756.04  7538.95  7327.33  7109.63  6879.10  
 6633.35  6370.60  6106.38  5852.50  5603.56  5346.09  5096.26  4856.99  4606.13  4344.88  
 4073.86  3813.28  3566.28  3331.20  3101.27  2873.21  2651.40  2429.84  2232.99  2043.74  
 1868.03  1700.76  1555.39  1423.87  1307.70  1198.27  1100.44  1013.37  937.76   874.17   
 819.07   757.38   696.51   640.13   589.62   545.46   506.29   470.95   440.06   411.12   
 385.72   364.92   347.45   331.50   317.61   304.75   293.05   282.52   273.10   265.00   
 257.64   250.43   245.54   238.15   230.76   223.38   216.50   209.11   201.80   194.67   
 187.15   179.07   170.81   162.33   153.27   144.42   134.93   125.14   115.71   104.13   
 90.95    74.77    50.79    28.91    17.75    14.60    13.96    7.86     4.48     4.69     
 5.09     5.64     6.32     7.20     8.38     9.80     11.54    13.55    16.17    19.29    
 22.63    26.54    34.65    46.21    36.10    40.27    44.91    49.76    54.84    60.03    
 65.21    70.24    75.18    80.05    84.77    89.42    93.93    98.46    103.08   107.84   
 112.61   118.24   124.65   131.71   139.68   148.76   159.42   171.19   185.22   201.56   
 226.52   
775516.75 770598.70 759637.57 736800.05 693942.30 626428.56 539531.65 447973.63 362375.65 290216.39 
 233527.69 191463.60 159617.76 135988.11 116707.48 103452.55 90243.31 80940.49 73005.11 65286.44 
 58432.40 52143.22 46180.73 40691.94 35945.05 31954.09 28562.08 25771.44 23334.21 21217.92 
 19288.97 17702.89 16406.28 15445.70 14743.09 14207.49 13724.29 13296.48 12917.26 12564.79 
 12243.94 11950.84 11708.83 11467.30 11225.76 10977.09 10702.90 10460.34 10236.34 9973.07  
 9693.93  9402.79  9134.19  8882.50  8638.91  8382.28  8115.18  7830.50  7535.32  7235.67  
 6939.18  6651.46  6363.03  6088.09  5812.49  5545.63  5280.04  5006.12  4714.61  4413.41  
 4133.22  3872.71  3613.05  3351.11  3089.54  2851.02  2617.10  2381.23  2168.01  1970.89  
 1797.39  1636.42  1481.13  1339.40  1222.81  1127.39  1032.17  945.88   877.22   821.05   
 766.66   703.02   645.96   596.66   553.81   516.34   485.99   459.52   436.72   416.83   
 399.79   385.55   373.01   362.16   352.43   342.50   334.22   326.61   319.69   312.57   
 306.08   300.25   294.16   288.84   283.31   277.83   272.56   268.11   263.62   259.09   
 254.85   250.58   246.13   242.19   237.19   231.88   226.31   220.61   215.27   209.44   
 203.78   195.69   187.14   178.24   169.39   160.49   150.91   141.19   130.14   117.15   
 104.13   88.22    51.90    18.73    11.94    11.20    10.98    11.89    14.21    16.89    
 19.94    23.25    26.95    30.98    35.28    39.86    45.11    50.65    56.69    69.67    
 79.56    73.73    80.05    86.56    92.76    98.40    103.27   107.71   111.44   114.64   
