IESNA:LM-63-2002
[TEST] 1
[TESTLAB] AOK
[TESTDATE] 2022-05-14
[ISSUEDATE] 2022-05-14 20:54:18
[NEARFIELD] 
[LAMPPOSITION] 0,0
[OTHER] EVERFINE GO-2000A_V1 SYSTEM
[MANUFAC] AOK
[LUMCAT] A
[LUMINAIRE] AOK-400WiSF-NVY-S5-00-5070-3585D-P
[LAMPCAT] B
[LAMP] 5050
[BALLAST] E
[BALLASTCAT] F
[OTHER] 
[OTHER] Gamma(deg)    Fz(lm)      Ft(lm)     %Lum    %Lamp
[OTHER]   0- 10      3939.54     3939.54     7.58     7.58
[OTHER]  10- 20      8475.54    12415.08    23.88    23.88
[OTHER]  20- 30      9915.36    22330.43    42.96    42.96
[OTHER]  30- 40      9870.90    32201.33    61.95    61.95
[OTHER]  40- 50      8180.09    40381.42    77.68    77.68
[OTHER]  50- 60      5867.24    46248.66    88.97    88.97
[OTHER]  60- 70      3360.97    49609.63    95.44    95.44
[OTHER]  70- 80      1417.43    51027.06    98.16    98.16
[OTHER]  80- 90       448.62    51475.68    99.03    99.03
[OTHER]  90-100       176.84    51652.52    99.37    99.37
[OTHER] 100-110        92.82    51745.33    99.55    99.55
[OTHER] 110-120        67.00    51812.33    99.68    99.68
[OTHER] 120-130        52.40    51864.74    99.78    99.78
[OTHER] 130-140        41.02    51905.76    99.86    99.86
[OTHER] 140-150        32.07    51937.83    99.92    99.92
[OTHER] 150-160        23.94    51961.77    99.96    99.96
[OTHER] 160-170        14.33    51976.10    99.99    99.99
[OTHER] 170-180         4.93    51981.03   100.00   100.00
[OTHER] 
TILT=NONE
1 51981 1 181 25 1 2 0.150 0.200 0.000
1.000 1 393.478
0.0    1.0    2.0    3.0    4.0    5.0    6.0    7.0    8.0    9.0    
 10.0   11.0   12.0   13.0   14.0   15.0   16.0   17.0   18.0   19.0   
 20.0   21.0   22.0   23.0   24.0   25.0   26.0   27.0   28.0   29.0   
 30.0   31.0   32.0   33.0   34.0   35.0   36.0   37.0   38.0   39.0   
 40.0   41.0   42.0   43.0   44.0   45.0   46.0   47.0   48.0   49.0   
 50.0   51.0   52.0   53.0   54.0   55.0   56.0   57.0   58.0   59.0   
 60.0   61.0   62.0   63.0   64.0   65.0   66.0   67.0   68.0   69.0   
 70.0   71.0   72.0   73.0   74.0   75.0   76.0   77.0   78.0   79.0   
 80.0   81.0   82.0   83.0   84.0   85.0   86.0   87.0   88.0   89.0   
 90.0   91.0   92.0   93.0   94.0   95.0   96.0   97.0   98.0   99.0   
 100.0  101.0  102.0  103.0  104.0  105.0  106.0  107.0  108.0  109.0  
 110.0  111.0  112.0  113.0  114.0  115.0  116.0  117.0  118.0  119.0  
 120.0  121.0  122.0  123.0  124.0  125.0  126.0  127.0  128.0  129.0  
 130.0  131.0  132.0  133.0  134.0  135.0  136.0  137.0  138.0  139.0  
 140.0  141.0  142.0  143.0  144.0  145.0  146.0  147.0  148.0  149.0  
 150.0  151.0  152.0  153.0  154.0  155.0  156.0  157.0  158.0  159.0  
 160.0  161.0  162.0  163.0  164.0  165.0  166.0  167.0  168.0  169.0  
 170.0  171.0  172.0  173.0  174.0  175.0  176.0  177.0  178.0  179.0  
 180.0  
0.0    15.0   30.0   45.0   60.0   75.0   90.0   105.0  120.0  135.0  
 150.0  165.0  180.0  195.0  210.0  225.0  240.0  255.0  270.0  285.0  
 300.0  315.0  330.0  345.0  360.0  
43662.82 42353.21 41582.26 38445.80 32382.19 28364.77 24297.85 18738.23 15543.57 11823.08 
 8095.97  4368.86  2249.48  148.06   81.62    36.90    26.52    20.74    17.12    14.90    
 12.97    11.41    10.51    9.78     9.15     8.47     7.87     7.41     7.07     7.01     
 6.81     6.38     5.75     5.22     5.07     4.93     4.92     4.74     4.72     4.68     
 4.61     4.36     4.25     4.21     4.18     4.16     4.12     4.03     3.89     3.75     
 3.68     3.57     3.52     3.45     3.36     3.25     3.15     3.04     2.96     2.93     
 2.92     2.87     2.82     2.77     2.69     2.60     2.52     2.47     2.43     2.40     
 2.37     2.34     2.31     2.29     2.28     2.28     2.28     2.29     2.34     2.40     
 2.46     2.53     2.63     2.79     2.96     3.08     3.21     3.34     3.47     3.61     
 3.76     3.94     4.12     4.29     4.48     4.69     4.93     5.19     5.52     5.88     
 6.27     6.70     7.17     7.67     8.17     8.73     9.31     9.90     10.53    11.18    
 11.85    12.56    13.28    14.00    14.76    15.53    16.32    17.15    18.03    18.96    
 19.92    20.93    22.03    23.20    24.40    25.66    27.00    28.39    29.79    31.22    
 32.65    34.12    35.61    37.10    38.56    40.01    41.48    42.93    44.39    45.87    
 47.36    48.93    50.60    52.36    54.17    56.07    58.02    60.04    62.16    64.41    
 66.73    69.06    71.35    73.65    75.89    77.96    79.81    81.45    82.99    84.26    
 85.34    86.13    86.61    86.71    86.41    85.71    84.57    82.97    81.02    78.82    
 76.34    73.61    70.84    67.89    64.97    61.97    58.98    55.98    52.93    49.72    
 45.73    
43662.82 42191.47 41368.72 40639.40 34126.25 30124.54 26020.92 21917.31 17810.16 13242.94 
 10113.72 6781.40  3628.35  500.64   271.02   198.58   126.69   111.82   109.45   111.68   
 86.29    62.45    77.68    77.62    58.67    45.68    33.13    29.66    22.52    17.62    
 14.84    13.04    11.65    10.36    9.01     8.42     8.29     8.04     7.84     7.68     
 7.39     7.05     6.75     6.36     5.95     5.64     5.41     5.11     4.83     4.59     
 4.33     4.09     3.85     3.64     3.42     3.21     3.03     2.89     2.77     2.65     
 2.57     2.47     2.38     2.30     2.24     2.20     2.17     2.12     2.09     2.04     
 2.01     1.97     1.96     1.96     1.96     1.96     1.98     2.00     2.04     2.08     
 2.14     2.21     2.29     2.39     2.49     2.61     2.72     2.85     2.99     3.16     
 3.34     3.52     3.72     3.94     4.20     4.48     4.77     5.09     5.46     5.86     
 6.29     6.77     7.27     7.77     8.30     8.85     9.45     10.03    10.65    11.29    
 11.97    12.69    13.43    14.12    14.89    15.70    16.55    17.43    18.37    19.34    
 20.35    21.43    22.57    23.77    25.00    26.24    27.55    28.91    30.28    31.67    
 33.01    34.39    35.78    37.12    38.40    39.71    41.05    42.38    43.70    45.09    
 46.60    48.16    49.79    51.51    53.29    55.14    57.07    59.09    61.17    63.38    
 65.64    67.93    70.13    72.27    74.34    76.19    77.88    79.34    80.65    81.78    
 82.72    83.39    83.74    83.75    83.36    82.56    81.44    79.90    78.06    76.04    
 73.83    71.58    69.28    66.89    64.47    62.03    59.42    56.73    53.89    50.96    
 45.73    
43662.82 42234.26 41462.85 40996.33 37624.51 32311.99 29171.39 25816.02 20399.53 17392.33 
 13329.77 10235.23 7151.88  4962.07  1110.81  733.13   391.84   260.87   229.23   177.28   
 159.62   150.92   137.70   117.26   96.75    90.59    74.47    80.95    70.67    62.56    
 57.76    50.36    49.41    44.21    42.91    35.02    32.04    34.73    31.52    31.83    
 28.96    32.76    30.91    29.48    26.99    27.71    24.76    21.37    21.19    18.49    
 17.32    12.87    10.37    9.29     8.83     8.33     7.58     6.79     6.00     5.18     
 4.58     4.15     3.87     3.58     3.24     2.91     2.61     2.40     2.25     2.14     
 2.07     2.02     1.98     1.96     1.94     1.93     1.92     1.92     1.92     1.94     
 2.00     2.07     2.16     2.27     2.40     2.54     2.70     2.88     3.07     3.29     
 3.53     3.80     4.09     4.41     4.77     5.15     5.56     5.99     6.46     6.94     
 7.43     7.92     8.46     9.04     9.63     10.26    10.92    11.59    12.31    13.05    
 13.81    14.62    15.46    16.32    17.22    18.15    19.13    20.10    21.14    22.22    
 23.31    24.44    25.59    26.74    27.86    29.00    30.14    31.31    32.44    33.58    
 34.73    35.90    37.11    38.35    39.61    40.92    42.32    43.79    45.33    46.92    
 48.55    50.21    51.97    53.84    55.77    57.74    59.73    61.76    63.79    65.79    
 67.76    69.64    71.42    73.09    74.64    76.02    77.28    78.44    79.45    80.24    
 80.77    81.03    81.02    80.74    80.18    79.35    78.27    76.95    75.52    73.94    
 72.25    70.47    68.60    66.65    64.72    62.75    60.74    58.67    56.54    54.29    
 45.73    
43662.82 42202.88 41490.68 40946.46 40579.37 38451.80 33257.22 30047.69 26838.91 23594.69 
 20348.21 16833.26 15223.53 11226.23 9438.88  6692.19  4732.75  2773.31  831.06   610.12   
 453.00   371.43   309.81   248.19   186.88   161.23   122.61   92.96    77.56    67.79    
 59.77    54.34    50.33    47.33    44.25    41.14    38.75    35.98    33.82    31.41    
 29.26    26.37    24.01    22.10    20.95    20.20    19.76    19.06    18.25    17.29    
 16.31    15.12    13.86    12.48    11.49    10.66    10.00    9.33     8.67     8.04     
 7.43     6.82     6.33     5.88     5.49     5.15     4.80     4.43     4.06     3.71     
 3.37     3.09     2.84     2.63     2.46     2.31     2.19     2.11     2.10     2.10     
 2.11     2.17     2.26     2.39     2.55     2.74     2.96     3.19     3.45     3.74     
 4.05     4.39     4.76     5.14     5.55     5.98     6.45     6.93     7.44     7.97     
 8.51     9.06     9.66     10.29    10.97    11.65    12.37    13.13    13.89    14.69    
 15.52    16.40    17.29    18.18    19.14    20.11    21.11    22.13    23.12    24.13    
 25.18    26.27    27.40    28.53    29.65    30.81    32.03    33.29    34.56    35.88    
 37.22    38.60    40.03    41.47    42.95    44.47    46.06    47.65    49.25    50.91    
 52.64    54.31    55.98    57.65    59.30    60.96    62.57    64.13    65.60    67.04    
 68.42    69.70    70.92    72.11    73.14    74.05    74.80    75.40    75.85    76.15    
 76.29    76.25    76.05    75.65    75.15    74.52    73.80    72.96    72.03    71.05    
 69.97    68.82    67.63    66.40    65.10    63.77    62.35    60.91    59.36    57.71    
 45.73    
43662.82 42630.48 41920.88 41518.05 40888.05 40127.16 39098.54 38020.56 34615.37 30664.28 
 28766.37 26543.42 23967.34 22442.75 19697.45 16478.25 14902.26 13193.23 11259.36 9322.71  
 7386.06  5734.77  4766.90  2920.47  1300.61  979.62   672.54   494.70   378.71   286.66   
 221.25   182.61   159.02   138.87   123.66   108.50   93.34    81.24    71.28    62.69    
 54.72    48.09    42.67    38.15    34.12    29.63    26.66    24.06    21.50    19.55    
 17.87    15.96    14.04    12.76    11.90    11.32    10.71    10.16    9.54     9.01     
 8.45     7.96     7.47     7.05     6.64     6.28     5.98     5.70     5.45     5.23     
 5.03     4.81     4.57     4.31     4.09     3.86     3.62     3.40     3.18     2.97     
 2.78     2.64     2.61     2.71     2.90     3.11     3.35     3.61     3.89     4.20     
 4.54     4.91     5.30     5.71     6.16     6.64     7.12     7.66     8.25     8.86     
 9.51     10.19    10.91    11.66    12.46    13.27    14.12    15.00    15.92    16.86    
 17.80    18.76    19.78    20.83    21.92    23.02    24.16    25.31    26.54    27.77    
 29.01    30.30    31.63    32.96    34.33    35.69    37.11    38.56    39.99    41.42    
 42.86    44.29    45.76    47.22    48.65    50.08    51.54    52.99    54.44    55.87    
 57.24    58.59    59.95    61.28    62.55    63.77    64.91    65.97    66.95    67.84    
 68.67    69.40    70.08    70.65    71.17    71.58    71.89    72.12    72.28    72.39    
 72.43    72.42    72.35    72.22    72.03    71.81    71.56    71.30    70.92    70.41    
 69.79    69.12    68.43    67.71    66.97    66.20    65.29    64.33    63.30    62.17    
 45.73    
43662.82 43246.48 42826.53 42426.60 41706.60 41074.03 40401.34 39914.17 38896.76 38050.29 
 37400.78 36513.32 35982.54 35130.51 33811.69 31583.09 30113.20 27703.74 26056.66 24680.96 
 23370.21 22056.00 20310.22 19013.39 17639.83 16393.49 14558.45 12851.95 11270.02 9964.45  
 9088.64  7977.91  6742.27  5603.55  4753.02  4154.46  3477.30  2937.21  2397.12  1857.59  
 1378.08  1012.79  777.31   634.54   478.25   328.10   259.90   191.96   153.78   125.20   
 103.18   87.12    72.29    62.87    53.36    45.89    40.26    35.29    30.85    26.94    
 24.29    21.79    18.97    17.13    15.38    14.16    12.79    11.27    10.40    10.00    
 9.66     9.34     8.90     8.57     8.22     7.94     7.69     7.45     7.19     6.71     
 6.10     5.21     4.15     2.86     2.43     2.57     2.76     2.96     3.19     3.44     
 3.71     4.00     4.33     4.69     5.08     5.48     5.96     6.44     6.94     7.49     
 8.08     8.68     9.30     9.97     10.68    11.43    12.24    13.05    13.89    14.82    
 15.78    16.79    17.79    18.81    19.87    20.98    22.10    23.26    24.41    25.55    
 26.76    28.02    29.31    30.61    31.87    33.17    34.56    35.96    37.35    38.73    
 40.11    41.46    42.85    44.21    45.53    46.83    48.16    49.45    50.69    51.94    
 53.17    54.35    55.49    56.60    57.69    58.77    59.77    60.76    61.70    62.62    
 63.50    64.32    65.09    65.82    66.49    67.12    67.71    68.24    68.75    69.21    
 69.64    70.03    70.38    70.75    71.12    71.50    71.82    72.04    72.13    71.94    
 71.72    71.45    71.15    70.75    70.33    69.84    69.28    68.61    67.94    67.13    
 45.73    
43662.82 43877.27 44123.08 44312.52 44125.26 43817.17 43423.36 43188.21 42573.24 42092.41 
 41599.16 41066.61 40593.80 40103.83 39510.53 38961.98 38480.40 37925.23 37231.22 36599.15 
 36005.13 35391.77 34837.52 34204.44 33313.27 32556.85 31713.12 30912.71 30064.76 29245.23 
 28462.14 27522.69 26364.75 25339.87 24420.68 23502.15 22638.40 21523.77 20650.35 19481.16 
 18507.78 17662.46 16540.23 15637.89 14678.46 13761.81 12866.24 12008.63 11108.36 10296.54 
 9436.37  8594.12  7858.42  7201.05  6556.65  5889.79  5282.55  4755.47  4260.52  3778.69  
 3346.42  2995.93  2649.57  2304.07  2026.46  1779.12  1527.97  1325.10  1136.54  968.24   
 818.46   686.95   571.00   466.71   381.90   312.12   255.35   198.74   157.29   122.16   
 93.09    71.88    56.00    42.42    28.27    6.73     3.93     2.16     1.63     1.50     
 1.47     1.40     1.10     1.11     1.14     1.18     1.23     1.28     1.34     1.41     
 1.49     1.55     1.65     1.74     1.83     1.95     2.07     2.20     2.34     2.49     
 2.65     2.81     2.99     3.18     3.38     3.56     3.77     3.99     4.22     4.47     
 4.72     4.99     5.27     5.56     5.84     6.15     6.47     6.80     7.13     7.47     
 7.83     8.19     8.60     8.98     9.36     9.73     10.13    10.56    10.99    11.44    
 11.91    12.38    12.86    13.38    13.93    14.55    15.17    15.79    16.47    17.15    
 17.81    18.50    19.25    20.05    20.93    21.82    22.80    23.93    25.17    26.43    
 27.77    29.16    30.62    32.20    33.75    35.38    37.16    38.82    40.45    42.09    
 43.68    45.28    46.87    48.38    49.80    51.10    52.38    53.50    54.64    55.82    
 45.73    
43662.82 44263.38 44978.35 45806.59 46306.55 46718.58 46958.90 47329.72 47409.30 47742.65 
 47877.90 47907.11 48083.83 48245.73 48307.19 48363.84 48300.20 48335.61 48227.80 47974.35 
 47671.46 47187.74 46521.96 45906.76 45179.67 44539.95 43925.00 43083.71 42026.19 40922.48 
 39626.02 38287.66 36908.85 35653.98 34460.35 33311.35 32082.47 30985.39 29960.37 28885.05 
 27761.15 26797.04 25834.45 24739.59 23743.77 22728.77 21733.66 20794.89 19816.44 18809.57 
 17921.36 16983.53 16029.19 15186.89 14409.76 13589.12 12796.16 12063.60 11408.93 10754.89 
 10074.06 9403.00  8751.71  8138.78  7567.65  6970.51  6430.01  5940.84  5410.63  4910.17  
 4433.96  4005.54  3613.15  3220.77  2844.63  2519.83  2259.29  1998.12  1764.59  1549.18  
 1373.37  1223.91  1094.17  964.57   859.75   766.54   688.92   624.43   563.05   505.10   
 455.72   406.28   358.81   320.86   287.11   256.79   230.93   209.08   189.51   171.52   
 156.93   143.85   131.48   121.41   111.35   103.47   96.71    90.21    85.07    80.63    
 76.36    72.62    69.34    65.96    62.75    59.86    56.83    54.23    51.63    49.31    
 47.08    44.53    42.62    40.47    38.43    36.24    33.61    31.11    28.60    25.38    
 22.36    19.89    16.42    13.33    11.01    9.43     8.10     7.28     7.10     7.34     
 7.73     8.14     8.55     8.98     9.41     9.84     10.28    10.71    11.16    11.60    
 12.06    12.52    12.99    13.50    14.05    14.62    15.26    15.96    16.72    17.56    
 18.49    19.55    20.72    22.02    23.43    25.02    26.73    28.40    30.20    31.96    
 33.80    35.78    37.72    39.58    41.47    43.31    45.15    46.92    48.73    50.66    
 45.73    
43662.82 44700.88 46107.21 47464.21 48714.70 49771.76 50735.16 51573.57 52346.49 53181.40 
 53985.03 54487.27 54574.20 54458.51 54147.48 53242.08 51895.67 50524.29 49399.03 48418.67 
 47255.64 46149.69 45128.06 44113.19 42987.12 41952.72 40874.10 39784.98 38819.68 37826.22 
 36823.49 35821.75 34792.06 33772.82 32609.42 31465.07 30234.03 29131.03 28012.79 26958.88 
 25926.09 24979.23 24033.05 23153.99 22362.37 21533.41 20747.99 19966.17 19214.60 18444.15 
 17725.60 17066.96 16392.56 15628.80 14892.85 14213.86 13574.69 12932.60 12318.99 11638.21 
 10981.04 10328.65 9702.26  9142.13  8654.36  8207.10  7752.45  7253.12  6722.33  6213.78  
 5731.12  5272.63  4831.62  4392.39  3964.84  3529.43  3045.73  2687.17  2329.51  2055.59  
 1792.65  1492.82  1293.11  1120.23  973.69   857.72   764.31   693.56   637.09   588.22   
 542.06   495.41   451.93   410.58   374.62   343.91   316.64   292.56   271.28   253.28   
 235.28   217.34   204.00   191.93   180.87   171.44   162.87   155.18   148.11   141.95   
 136.40   131.48   126.75   121.96   117.76   113.76   109.90   106.24   102.59   99.17    
 95.93    92.75    89.86    87.01    84.15    81.27    78.49    75.45    72.59    69.79    
 67.04    64.54    61.69    59.13    56.71    54.39    51.94    49.46    46.74    44.17    
 41.68    38.78    35.41    32.68    30.09    25.05    22.56    21.23    18.86    10.24    
 8.45     7.98     8.14     8.55     9.02     9.51     10.03    10.58    11.17    11.86    
 12.65    13.48    14.36    15.34    16.40    17.63    18.96    20.47    22.07    23.81    
 25.84    27.78    29.88    31.97    34.15    36.39    38.67    41.12    43.81    46.63    
 45.73    
43662.82 45311.39 47198.84 48923.58 50715.29 52354.45 54000.95 55359.02 56253.38 56862.79 
 56559.34 55269.13 53930.35 52848.07 51751.82 50603.25 49649.65 48767.00 47712.75 46480.49 
 45242.55 43896.32 42513.01 40956.89 39303.00 37820.91 36376.33 35108.17 33849.88 32683.83 
 31658.95 30871.91 30343.66 29926.01 29549.42 29137.06 28756.51 28368.20 27960.84 27492.16 
 26902.67 26179.76 25407.49 24654.81 23938.42 23226.34 22422.02 21484.50 20537.88 19619.30 
 18743.48 17885.63 17064.01 16294.85 15526.17 14809.63 14133.66 13429.95 12709.95 11893.48 
 11230.40 10568.50 9943.91  9314.81  8702.33  8083.10  7496.32  6909.02  6301.78  5609.76  
 4996.80  4467.91  4032.45  3621.26  3232.65  2881.22  2560.63  2183.00  1923.99  1699.77  
 1494.96  1301.69  1166.77  1032.29  897.81   809.22   731.80   664.59   605.92   560.76   
 518.18   477.01   439.62   402.93   370.39   341.00   316.62   296.71   279.77   264.30   
 250.82   238.84   228.45   219.17   210.16   201.98   194.49   187.68   181.58   175.66   
 170.01   164.66   159.50   154.77   150.44   146.24   142.31   138.57   134.81   131.32   
 127.71   124.10   120.71   117.17   113.40   110.12   106.83   103.47   100.12   96.82    
 93.60    90.54    87.60    84.75    81.87    78.99    76.17    73.39    70.59    67.76    
 65.02    62.17    59.03    56.37    53.92    51.72    49.55    47.24    44.10    40.19    
 37.46    33.44    31.29    29.81    27.30    26.19    24.84    14.15    12.20    11.49    
 11.25    11.03    10.90    11.64    12.55    13.60    14.73    15.91    17.20    18.69    
 20.37    22.23    24.21    26.31    28.65    30.94    33.39    36.12    39.20    42.75    
 45.73    
43662.82 45674.63 47833.91 49925.53 52052.94 54158.25 56084.53 57139.63 57658.42 56744.20 
