IESNA:LM-63-2002
[TEST] 1
[TESTLAB] AOK
[TESTDATE] 2022-05-17
[ISSUEDATE] 2022-05-17 14:30:23
[NEARFIELD] 
[LAMPPOSITION] 0,0
[OTHER] EVERFINE GO-2000A_V1 SYSTEM
[MANUFAC] AOK
[LUMCAT] A
[LUMINAIRE] AOK-800WiSF-NV-S5-00-5070-3585D-P
[LAMPCAT] B
[LAMP] 5050
[BALLAST] E
[BALLASTCAT] F
[OTHER] 
[OTHER] Gamma(deg)    Fz(lm)      Ft(lm)     %Lum    %Lamp
[OTHER]   0- 10      8109.48     8109.48     7.58     7.58
[OTHER]  10- 20     18424.99    26534.47    24.80    24.80
[OTHER]  20- 30     21095.28    47629.74    44.51    44.51
[OTHER]  30- 40     20061.14    67690.89    63.26    63.26
[OTHER]  40- 50     16282.14    83973.03    78.48    78.48
[OTHER]  50- 60     11554.02    95527.05    89.28    89.28
[OTHER]  60- 70      6593.66   102120.71    95.44    95.44
[OTHER]  70- 80      2948.53   105069.24    98.19    98.19
[OTHER]  80- 90      1028.86   106098.10    99.15    99.15
[OTHER]  90-100       362.24   106460.33    99.49    99.49
[OTHER] 100-110       158.10   106618.43    99.64    99.64
[OTHER] 110-120       107.31   106725.74    99.74    99.74
[OTHER] 120-130        82.73   106808.46    99.82    99.82
[OTHER] 130-140        65.53   106873.99    99.88    99.88
[OTHER] 140-150        51.50   106925.49    99.93    99.93
[OTHER] 150-160        38.78   106964.27    99.96    99.96
[OTHER] 160-170        28.37   106992.64    99.99    99.99
[OTHER] 170-180        10.41   107003.05   100.00   100.00
[OTHER] 
TILT=NONE
1 1.07e+005 1 181 25 1 2 0.150 0.200 0.000
1.000 1 764.68
0.0    1.0    2.0    3.0    4.0    5.0    6.0    7.0    8.0    9.0    
 10.0   11.0   12.0   13.0   14.0   15.0   16.0   17.0   18.0   19.0   
 20.0   21.0   22.0   23.0   24.0   25.0   26.0   27.0   28.0   29.0   
 30.0   31.0   32.0   33.0   34.0   35.0   36.0   37.0   38.0   39.0   
 40.0   41.0   42.0   43.0   44.0   45.0   46.0   47.0   48.0   49.0   
 50.0   51.0   52.0   53.0   54.0   55.0   56.0   57.0   58.0   59.0   
 60.0   61.0   62.0   63.0   64.0   65.0   66.0   67.0   68.0   69.0   
 70.0   71.0   72.0   73.0   74.0   75.0   76.0   77.0   78.0   79.0   
 80.0   81.0   82.0   83.0   84.0   85.0   86.0   87.0   88.0   89.0   
 90.0   91.0   92.0   93.0   94.0   95.0   96.0   97.0   98.0   99.0   
 100.0  101.0  102.0  103.0  104.0  105.0  106.0  107.0  108.0  109.0  
 110.0  111.0  112.0  113.0  114.0  115.0  116.0  117.0  118.0  119.0  
 120.0  121.0  122.0  123.0  124.0  125.0  126.0  127.0  128.0  129.0  
 130.0  131.0  132.0  133.0  134.0  135.0  136.0  137.0  138.0  139.0  
 140.0  141.0  142.0  143.0  144.0  145.0  146.0  147.0  148.0  149.0  
 150.0  151.0  152.0  153.0  154.0  155.0  156.0  157.0  158.0  159.0  
 160.0  161.0  162.0  163.0  164.0  165.0  166.0  167.0  168.0  169.0  
 170.0  171.0  172.0  173.0  174.0  175.0  176.0  177.0  178.0  179.0  
 180.0  
0.0    15.0   30.0   45.0   60.0   75.0   90.0   105.0  120.0  135.0  
 150.0  165.0  180.0  195.0  210.0  225.0  240.0  255.0  270.0  285.0  
 300.0  315.0  330.0  345.0  360.0  
88476.06 86158.12 84976.54 80284.08 73389.95 67840.48 59790.35 53682.32 46336.58 39521.66 
 31711.68 27160.75 24817.64 22760.25 21046.50 19498.89 15142.10 12631.16 9951.51  7269.45  
 4997.81  3515.22  1876.46  1406.78  950.26   493.74   37.21    22.01    17.34    14.47    
 12.68    11.31    10.17    9.21     8.60     8.10     7.64     7.23     6.79     6.44     
 6.14     5.89     5.69     5.58     5.44     5.35     5.19     5.09     4.98     4.86     
 4.66     4.50     4.43     4.41     4.38     4.27     4.11     3.92     3.78     3.70     
 3.61     3.57     3.55     3.51     3.49     3.48     3.48     3.48     3.45     3.45     
 3.45     3.44     3.44     3.44     3.44     3.44     3.44     3.49     3.56     3.62     
 3.72     3.83     3.95     4.07     4.21     4.37     4.56     4.77     5.01     5.28     
 5.57     5.89     6.23     6.59     6.99     7.42     7.87     8.37     8.88     9.48     
 10.12    10.80    11.53    12.31    13.14    13.98    14.89    15.84    16.83    17.85    
 18.95    20.10    21.29    22.49    23.75    25.07    26.40    27.77    29.25    30.75    
 32.39    34.11    35.98    37.90    39.87    41.92    44.16    46.45    48.82    51.23    
 53.72    56.29    58.94    61.62    64.30    67.02    69.81    72.70    75.62    78.61    
 81.71    84.92    88.30    91.91    95.67    99.52    103.45   107.42   111.66   116.09   
 120.54   124.98   129.39   133.61   137.86   141.75   145.36   148.57   151.32   153.73   
 155.72   157.48   158.92   159.78   159.97   159.59   158.56   156.89   154.73   152.02   
 148.95   145.21   141.28   137.15   132.91   128.00   122.76   117.29   111.97   106.57   
 100.08   
88476.06 85341.45 84152.54 82695.18 73647.37 68807.36 63054.25 55828.66 49762.63 43043.29 
 36981.08 28960.40 26379.42 23798.44 21226.24 19630.17 18014.23 13863.73 11611.12 9081.83  
 6751.51  4670.43  3296.90  1923.37  560.36   408.60   256.84   106.35   90.85    71.47    
 49.78    45.06    37.63    32.50    33.17    29.57    21.57    17.46    14.50    12.72    
 11.71    10.93    10.11    9.43     8.86     8.28     7.68     7.03     6.70     6.50     
 6.25     6.08     5.91     5.72     5.54     5.42     5.28     5.11     4.93     4.88     
 4.82     4.76     4.70     4.64     4.54     4.41     4.26     4.14     4.02     3.91     
 3.82     3.75     3.69     3.68     3.68     3.67     3.66     3.66     3.68     3.73     
 3.80     3.88     4.00     4.14     4.31     4.48     4.68     4.91     5.16     5.44     
 5.73     6.06     6.40     6.80     7.22     7.69     8.18     8.73     9.32     9.97     
 10.64    11.33    12.07    12.88    13.73    14.64    15.60    16.59    17.61    18.68    
 19.79    20.95    22.15    23.38    24.62    25.96    27.41    28.92    30.42    32.00    
 33.71    35.58    37.53    39.49    41.48    43.56    45.71    47.97    50.25    52.58    
 54.93    57.36    59.79    62.24    64.71    67.26    69.90    72.60    75.36    78.26    
 81.39    84.66    88.06    91.60    95.21    99.01    102.89   106.86   110.94   115.18   
 119.52   123.76   127.86   131.97   135.82   139.29   142.53   145.46   148.23   150.67   
 152.70   154.35   155.49   155.98   155.22   154.42   153.19   151.46   149.40   147.10   
 144.43   141.63   138.46   134.99   131.31   127.25   122.79   118.13   113.34   108.56   
 100.08   
88476.06 85696.38 83350.76 82302.30 77447.48 71836.07 66287.67 60825.65 54303.51 48464.42 
 42765.85 36710.95 30402.94 25563.28 23157.17 21236.32 19399.26 17923.20 16327.38 12518.39 
 10381.35 8264.68  6148.00  4558.63  3487.27  2387.20  1686.94  990.87   294.81   205.60   
 147.85   124.88   102.33   79.78    61.79    54.36    47.12    39.81    35.82    33.50    
 29.79    26.79    23.85    21.84    20.10    18.38    16.76    15.27    14.01    12.60    
 11.21    9.82     8.68     8.39     8.79     8.97     8.74     8.30     7.82     7.35     
 6.94     6.58     6.26     5.97     5.73     5.53     5.35     5.18     5.00     4.84     
 4.70     4.58     4.46     4.34     4.23     4.14     4.06     4.01     3.98     3.98     
 4.00     4.14     4.32     4.53     4.76     5.01     5.28     5.59     5.93     6.31     
 6.71     7.16     7.65     8.18     8.77     9.37     10.05    10.76    11.52    12.32    
 13.18    14.08    15.01    15.97    16.97    18.07    19.19    20.32    21.47    22.69    
 24.00    25.37    26.76    28.19    29.67    31.26    32.90    34.53    36.25    38.05    
 39.83    41.65    43.53    45.45    47.37    49.32    51.31    53.40    55.51    57.65    
 59.88    62.17    64.60    67.14    69.74    72.46    75.35    78.40    81.53    84.75    
 87.99    91.31    94.75    98.39    102.09   105.85   109.69   113.61   117.41   121.12   
 124.78   128.27   131.66   134.87   137.92   140.66   143.18   145.48   147.54   149.35   
 150.76   151.67   152.14   152.23   151.85   151.10   150.01   148.61   147.44   145.63   
 143.57   141.19   138.48   135.68   132.55   129.06   125.29   121.30   117.59   113.63   
 100.08   
88476.06 85854.35 83412.16 81993.73 81050.12 76986.08 70668.30 67107.27 62798.93 57406.68 
 52357.82 47554.82 42008.24 37932.06 33540.36 27704.81 24949.79 22203.76 20380.89 18576.72 
 16990.22 15448.27 14104.69 10971.20 9264.53  7494.50  5677.81  4808.42  3576.48  2732.79  
 1888.38  949.20   575.77   398.29   323.69   249.09   174.93   151.39   127.84   109.74   
 91.36    79.20    68.81    59.92    51.94    45.84    40.41    35.34    32.19    29.45    
 26.62    22.63    18.77    15.83    14.03    12.87    12.70    12.21    11.66    10.92    
 10.22    9.58     9.00     8.48     8.06     7.72     7.39     7.04     6.75     6.48     
 6.23     5.97     5.71     5.45     5.21     4.96     4.75     4.59     4.48     4.47     
 4.51     4.67     4.93     5.24     5.57     5.94     6.34     6.80     7.28     7.79     
 8.33     8.89     9.49     10.16    10.87    11.58    12.35    13.18    14.08    15.05    
 16.03    17.02    18.06    19.17    20.34    21.54    22.79    24.07    25.41    26.79    
 28.25    29.76    31.32    32.85    34.45    36.11    37.86    39.66    41.45    43.30    
 45.23    47.24    49.34    51.46    53.60    55.83    58.22    60.68    63.16    65.74    
 68.35    71.07    73.90    76.73    79.60    82.54    85.59    88.65    91.68    94.78    
 98.00    101.22   104.38   107.51   110.61   113.72   116.68   119.64   122.48   125.24   
 127.98   130.57   133.01   135.41   137.68   139.77   141.66   143.13   144.41   145.37   
 146.12   146.68   147.02   147.04   146.83   146.44   145.81   144.93   143.87   142.68   
 141.21   139.58   138.26   135.73   133.04   130.38   127.46   124.48   121.69   118.64   
 100.08   
88476.06 86372.61 84112.26 82740.90 81654.02 80097.69 78822.17 74871.49 70118.12 67196.28 
 63484.01 60098.90 56562.82 52243.02 49084.08 46231.99 41752.57 38194.98 35225.27 31632.55 
 28252.56 24503.86 21876.71 19990.06 18312.87 16688.22 15219.04 13832.72 12397.10 10918.39 
 9439.14  7959.90  6614.58  5359.88  4307.84  3589.27  2933.23  2346.53  1811.48  1336.23  
 1045.64  757.37   469.10   353.90   279.55   219.34   175.09   140.98   121.61   102.40   
 83.19    71.98    60.60    53.01    45.63    39.62    35.75    32.22    28.03    25.49    
 22.29    18.96    15.86    14.96    14.23    13.27    12.21    11.33    10.40    9.73     
 9.25     8.69     8.21     7.85     7.46     7.04     6.59     6.20     5.87     5.65     
 5.58     5.73     6.07     6.46     6.88     7.32     7.79     8.30     8.87     9.48     
 10.14    10.86    11.63    12.44    13.30    14.19    15.15    16.18    17.25    18.38    
 19.56    20.83    22.13    23.49    24.92    26.40    27.97    29.53    31.13    32.85    
 34.66    36.49    38.31    40.25    42.27    44.34    46.45    48.55    50.80    53.13    
 55.46    57.83    60.25    62.81    65.34    67.91    70.57    73.32    76.08    78.81    
 81.60    84.37    87.17    89.98    92.76    95.50    98.29    101.09   103.88   106.63   
 109.33   111.99   114.64   117.24   119.74   122.19   124.62   126.93   128.94   130.80   
 132.49   134.03   135.55   136.72   138.02   139.17   140.15   140.97   141.72   142.49   
 143.13   143.69   144.15   144.48   144.62   144.67   144.37   143.81   143.17   142.39   
 141.64   140.30   138.89   137.43   135.67   133.78   132.00   130.04   127.88   125.60   
 100.08   
88476.06 87499.38 85548.89 84237.74 83006.01 81579.79 80442.73 78824.61 77811.61 76198.47 
 75009.70 73592.40 72170.41 70190.01 67224.31 64872.52 61962.34 59729.75 57573.95 55359.90 
 52823.75 50512.79 48258.06 45775.46 43365.02 40792.55 38285.73 36182.45 33794.47 31562.04 
 29028.85 26719.67 24704.76 22689.85 20676.78 18883.43 17055.16 15316.94 13818.46 12455.31 
 11179.76 10121.53 9014.47  8016.60  7016.87  6128.36  5298.99  4545.25  3779.74  3145.61  
 2511.47  1879.78  1498.53  1208.36  987.94   814.76   663.83   535.40   418.51   321.21   
 256.06   191.12   149.11   117.33   93.38    74.70    60.51    48.89    38.71    33.23    
 27.94    22.97    18.47    17.43    15.72    13.96    12.39    11.16    9.91     8.33     
 6.47     5.39     5.47     5.82     6.19     6.61     7.08     7.56     8.08     8.65     
 9.25     9.88     10.56    11.32    12.13    12.99    13.87    14.85    15.87    16.99    
 18.15    19.35    20.61    21.96    23.40    24.89    26.46    28.09    29.71    31.44    
 33.30    35.25    37.20    39.16    41.19    43.35    45.58    47.90    50.18    52.53    
 54.97    57.49    60.14    62.82    65.42    68.13    70.86    73.66    76.50    79.35    
 82.12    84.98    87.82    90.64    93.26    95.97    98.74    101.34   103.86   106.06   
 107.66   109.83   112.20   114.45   116.69   118.95   121.05   123.07   124.92   126.72   
 128.46   130.13   131.69   133.19   134.58   135.93   137.21   138.38   139.50   140.53   
 141.49   142.48   143.44   144.22   144.87   145.35   145.56   145.53   145.44   145.25   
 144.91   144.42   143.81   143.15   142.30   141.02   139.71   138.33   136.70   134.99   
 100.08   
88476.06 88531.19 87736.80 87262.99 86800.54 85954.21 85135.60 83983.90 83366.91 82081.00 
 81028.41 80414.82 79271.34 78393.25 77253.83 76032.07 74957.86 74158.23 72913.35 71578.56 
 70100.11 69031.95 67714.78 66350.57 64724.43 63309.59 61475.47 60070.38 58389.55 56421.69 
 54537.63 52526.76 50766.57 48827.12 46991.92 45156.15 42920.66 40761.80 38985.94 37427.51 
 35648.49 33829.81 31955.55 30226.23 28551.73 26759.25 25169.63 23579.63 21957.58 20356.90 
 18913.52 17556.61 16236.99 14948.40 13734.61 12584.39 11526.43 10507.36 9516.02  8641.28  
 7841.79  7088.65  6343.82  5680.65  5059.24  4510.85  3992.65  3522.98  3070.01  2692.90  
 2316.49  2000.19  1712.86  1458.14  1223.18  1010.00  817.04   655.21   510.76   387.74   
 300.08   212.41   125.16   73.44    27.34    5.76     4.03     3.42     3.36     3.29     
 3.17     2.75     2.49     2.54     2.62     2.73     2.87     3.03     3.22     3.41     
 3.61     3.82     4.02     4.24     4.47     4.71     4.96     5.25     5.54     5.84     
 6.17     6.53     6.91     7.31     7.74     8.21     8.69     9.20     9.72     10.27    
 10.86    11.49    12.12    12.77    13.45    14.16    14.90    15.68    16.46    17.27    
 18.09    18.96    19.85    20.81    21.79    22.78    23.84    24.95    26.09    27.24    
 28.46    29.73    31.06    32.49    33.97    35.56    37.20    38.80    40.45    42.15    
 43.94    45.80    47.73    49.76    51.87    54.10    56.48    59.08    61.77    64.56    
 67.52    70.74    74.14    77.71    81.29    84.82    88.16    91.42    94.49    97.71    
 100.86   104.06   107.11   110.00   112.66   114.90   117.07   119.17   121.04   122.86   
 100.08   
88476.06 89207.48 89197.24 89823.80 90350.90 90807.65 90936.39 91170.16 91465.15 91792.79 
 91763.57 92076.39 92211.51 92308.95 92514.58 92254.98 91916.39 91440.02 90934.21 90095.25 
 89164.88 88173.51 86888.61 85544.94 84012.07 82361.16 80492.39 78310.41 75771.43 73349.20 
 70831.89 68313.66 65984.03 63708.25 61493.16 59423.14 57282.01 54947.47 52778.07 50916.69 
 49022.30 47055.38 45252.22 43298.13 41382.79 39540.06 37681.89 35819.56 34121.91 32421.54 
 30577.45 29056.03 27497.71 25987.13 24493.06 23007.15 21709.97 20466.62 19251.81 17989.03 
 16818.28 15699.51 14578.08 13536.82 12572.53 11644.53 10716.85 9789.17  9020.73  8226.37  
 7515.25  6824.35  6217.55  5636.54  5143.99  4664.08  4215.20  3797.11  3419.98  3091.63  
 2793.01  2516.21  2255.87  2029.68  1815.32  1629.53  1460.28  1316.39  1188.34  1060.44  
 932.53   820.25   721.08   632.93   555.17   490.47   433.04   386.02   343.99   307.05   
 275.32   248.46   225.40   205.18   186.26   169.06   154.06   140.74   129.77   118.82   
 107.86   100.24   92.73    83.75    73.33    61.57    48.87    37.25    29.99    22.53    
 11.64    7.67     7.42     7.89     8.40     8.94     9.55     10.15    10.82    11.53    
 12.23    12.93    13.74    14.58    15.47    16.35    17.40    18.70    19.38    19.89    
 20.71    21.58    22.39    23.24    24.13    24.89    25.62    26.66    28.22    29.72    
 31.03    32.38    33.09    34.25    35.85    37.53    39.41    41.44    43.57    45.91    
 48.44    51.25    54.27    57.60    61.19    65.23    68.95    72.10    75.66    79.33    
 83.13    86.94    90.61    94.14    97.58    100.88   104.22   107.42   110.53   113.66   
 100.08   
88476.06 89867.89 91348.27 92861.12 94745.33 96520.02 98180.41 99670.46 100994.15 102445.46 
 103474.06 103995.61 104006.63 103549.02 102432.72 100517.83 97850.98 95292.54 93076.06 90980.29 
 88778.08 86538.43 84177.19 82068.14 79917.37 77974.88 76017.69 74170.80 72166.96 70110.55 
 68326.80 66501.22 64590.32 62582.48 60513.66 58373.26 56285.49 54242.82 52282.97 50215.56 
 48198.30 46346.35 44506.96 42817.12 41226.42 39529.99 38064.75 36475.74 34931.43 33440.14 
 32025.38 30643.55 29333.50 27999.05 26666.13 25442.10 24218.07 22992.31 21614.81 20309.46 
 19128.22 18165.73 17156.15 16147.72 15196.70 14211.53 13242.16 12304.39 11355.91 10431.72 
 9535.40  8728.19  7966.04  7168.34  6353.59  5636.05  5026.10  4463.35  3978.09  3475.68  
 3077.46  2760.43  2444.23  2198.01  1975.92  1781.98  1612.89  1474.00  1350.71  1219.83  
 1092.29  974.13   868.19   778.53   697.32   630.78   572.96   524.18   481.72   443.81   
 411.59   383.22   358.83   338.41   320.56   304.82   290.89   277.91   266.95   257.56   
 248.70   239.84   231.00   223.89   216.86   210.22   203.92   197.87   192.19   186.14   
 180.14   174.36   168.55   162.52   155.40   147.08   138.06   129.07   119.83   109.87   
 98.87    87.49    73.78    51.50    33.93    26.10    21.73    18.81    12.89    9.78     
 10.31    11.07    11.86    12.69    13.55    14.45    15.38    16.32    17.32    18.34    
 19.48    20.70    21.84    23.25    26.99    33.27    27.00    27.91    29.50    31.31    
 33.39    35.80    38.64    41.82    45.10    48.48    51.63    55.19    58.96    62.95    
 66.97    71.17    75.36    79.52    83.75    87.87    92.11    96.24    100.48   104.78   
 100.08   
88476.06 90899.17 93536.33 95970.66 99049.13 101820.05 104572.20 107031.99 108472.06 108893.45 
 108396.37 105699.65 102779.64 100539.38 97947.82 95666.26 93261.25 91212.91 89300.20 87264.66 
 85015.71 82816.89 80265.97 77543.71 74743.84 72039.59 69552.65 67206.15 65038.35 63060.42 
 61404.58 59923.94 58797.35 57726.00 56843.45 55790.14 54739.42 53700.77 52481.03 51056.57 
 49518.01 47822.24 46229.08 44777.06 43378.38 41819.89 39915.36 38040.03 36401.54 34680.67 
 33055.87 31519.39 30039.80 28536.74 27089.52 25638.80 24308.25 22998.76 21685.44 20303.92 
 19010.10 17728.47 16547.47 15315.44 14078.90 12954.45 11863.07 10705.33 9547.02  8510.79  
 7673.49  6963.80  6285.39  5652.41  5096.56  4485.05  3969.21  3539.93  3162.58  2819.41  
 2525.27  2265.27  2019.77  1801.00  1621.99  1466.49  1333.55  1214.62  1120.16  1025.93  
 921.92   826.10   744.13   672.73   611.04   558.80   515.27   477.99   446.71   419.37   
 396.18   376.61   359.34   344.20   330.38   317.80   307.01   297.03   288.07   279.12   
 271.13   264.02   258.10   251.75   245.88   240.28   235.11   230.23   224.94   219.82   
 215.01   209.98   204.04   197.91   191.78   185.56   179.60   173.91   168.15   162.46   
 156.94   151.69   146.79   141.68   136.56   131.05   123.92   116.77   108.40   98.34    
 88.05    79.34    69.17    44.74    20.94    16.76    14.38    12.90    11.55    11.59    
 12.54    13.53    14.56    15.67    16.86    18.07    19.40    20.84    22.54    24.60    
 27.13    34.67    35.54    32.72    35.20    38.04    41.18    44.54    48.13    51.92    
 55.94    60.14    64.48    68.76    73.12    77.58    82.42    87.47    92.52    97.73    
 100.08   
