IESNA:LM-63-2002
[TEST] 1
[TESTLAB] AOK
[TESTDATE] 2022-06-09
[ISSUEDATE] 2022-06-10 09:04:50
[NEARFIELD] 
[LAMPPOSITION] 0,0
[OTHER] EVERFINE GO-2000A_V1 SYSTEM
[MANUFAC] AOK
[LUMCAT] A
[LUMINAIRE] AOK-400WiSF-HV-S35-00-5070-2030D-P
[LAMPCAT] B
[LAMP] 3535
[BALLAST] E
[BALLASTCAT] F
[OTHER] 
[OTHER] Gamma(deg)    Fz(lm)      Ft(lm)     %Lum    %Lamp
[OTHER]   0- 10     16779.57    16779.57    31.90    31.90
[OTHER]  10- 20     18165.19    34944.76    66.43    66.43
[OTHER]  20- 30      7226.49    42171.24    80.16    80.16
[OTHER]  30- 40      3708.92    45880.16    87.21    87.21
[OTHER]  40- 50      2347.02    48227.18    91.68    91.68
[OTHER]  50- 60      1816.04    50043.22    95.13    95.13
[OTHER]  60- 70      1230.34    51273.56    97.47    97.47
[OTHER]  70- 80       582.01    51855.57    98.57    98.57
[OTHER]  80- 90       236.55    52092.12    99.02    99.02
[OTHER]  90-100       127.52    52219.64    99.27    99.27
[OTHER] 100-110        92.70    52312.34    99.44    99.44
[OTHER] 110-120        75.55    52387.89    99.58    99.58
[OTHER] 120-130        57.49    52445.38    99.69    99.69
[OTHER] 130-140        42.11    52487.48    99.77    99.77
[OTHER] 140-150        35.39    52522.87    99.84    99.84
[OTHER] 150-160        38.80    52561.68    99.92    99.92
[OTHER] 160-170        32.61    52594.29    99.98    99.98
[OTHER] 170-180        11.99    52606.29   100.00   100.00
[OTHER] 
TILT=NONE
1 52606 1 181 25 1 2 0.150 0.200 0.000
1.000 1 405.39
0.0    1.0    2.0    3.0    4.0    5.0    6.0    7.0    8.0    9.0    
 10.0   11.0   12.0   13.0   14.0   15.0   16.0   17.0   18.0   19.0   
 20.0   21.0   22.0   23.0   24.0   25.0   26.0   27.0   28.0   29.0   
 30.0   31.0   32.0   33.0   34.0   35.0   36.0   37.0   38.0   39.0   
 40.0   41.0   42.0   43.0   44.0   45.0   46.0   47.0   48.0   49.0   
 50.0   51.0   52.0   53.0   54.0   55.0   56.0   57.0   58.0   59.0   
 60.0   61.0   62.0   63.0   64.0   65.0   66.0   67.0   68.0   69.0   
 70.0   71.0   72.0   73.0   74.0   75.0   76.0   77.0   78.0   79.0   
 80.0   81.0   82.0   83.0   84.0   85.0   86.0   87.0   88.0   89.0   
 90.0   91.0   92.0   93.0   94.0   95.0   96.0   97.0   98.0   99.0   
 100.0  101.0  102.0  103.0  104.0  105.0  106.0  107.0  108.0  109.0  
 110.0  111.0  112.0  113.0  114.0  115.0  116.0  117.0  118.0  119.0  
 120.0  121.0  122.0  123.0  124.0  125.0  126.0  127.0  128.0  129.0  
 130.0  131.0  132.0  133.0  134.0  135.0  136.0  137.0  138.0  139.0  
 140.0  141.0  142.0  143.0  144.0  145.0  146.0  147.0  148.0  149.0  
 150.0  151.0  152.0  153.0  154.0  155.0  156.0  157.0  158.0  159.0  
 160.0  161.0  162.0  163.0  164.0  165.0  166.0  167.0  168.0  169.0  
 170.0  171.0  172.0  173.0  174.0  175.0  176.0  177.0  178.0  179.0  
 180.0  
0.0    15.0   30.0   45.0   60.0   75.0   90.0   105.0  120.0  135.0  
 150.0  165.0  180.0  195.0  210.0  225.0  240.0  255.0  270.0  285.0  
 300.0  315.0  330.0  345.0  360.0  
227370.27 226296.32 223584.66 217957.99 206330.55 168338.86 136771.89 108280.41 75799.39 55454.84 
 34353.72 24882.09 14550.51 9723.17  4956.06  188.95   98.27    55.16    43.49    33.34    
 27.87    23.29    19.45    17.03    14.91    13.74    12.62    11.13    10.01    9.45     
 9.07     8.82     8.56     7.93     6.88     6.04     5.69     5.58     5.52     5.36     
 5.51     5.56     5.49     5.05     4.91     4.69     4.67     4.87     5.01     4.90     
 4.63     4.43     4.35     4.32     4.29     4.29     4.31     4.15     4.03     3.93     
 3.82     3.75     3.62     3.45     3.33     3.21     3.10     2.95     2.84     2.74     
 2.66     2.59     2.52     2.47     2.43     2.40     2.39     2.39     2.39     2.41     
 2.43     2.46     2.51     2.56     2.68     2.87     3.01     3.13     3.22     3.30     
 3.35     3.42     3.50     3.56     3.57     3.57     3.61     3.68     3.77     3.89     
 4.06     4.24     4.45     4.67     4.93     5.21     5.48     5.75     6.02     6.30     
 6.56     6.81     7.07     7.33     7.59     7.88     8.18     8.51     8.89     9.29     
 9.70     10.14    10.62    11.11    11.61    12.15    12.74    13.36    14.01    14.69    
 15.39    16.10    16.82    17.56    18.34    19.23    20.24    21.41    22.79    24.38    
 26.15    28.18    30.51    33.11    36.03    39.39    43.20    47.62    52.84    59.00    
 66.25    74.42    83.55    93.74    104.55   115.95   127.50   138.94   150.73   162.48   
 173.60   184.12   193.70   201.93   208.24   212.48   214.83   215.07   213.45   210.16   
 205.56   199.66   192.89   185.34   177.69   169.24   160.90   152.27   142.89   133.13   
 122.30   
227370.27 227294.23 225304.67 221146.74 214034.64 187179.04 150815.75 125272.93 96958.12 66485.70 
 52176.74 41912.37 31648.00 21383.63 11119.26 948.53   911.23   733.19   537.07   340.95   
 146.53   172.42   176.95   116.10   124.86   123.21   100.52   60.69    56.21    36.54    
 23.97    17.52    14.89    12.96    11.45    9.58     8.06     6.97     6.33     5.75     
 5.38     5.12     5.10     5.11     5.07     4.89     4.68     4.52     4.36     4.18     
 3.97     3.81     3.70     3.54     3.43     3.32     3.21     3.10     2.99     2.89     
 2.80     2.72     2.64     2.55     2.48     2.43     2.38     2.34     2.31     2.28     
 2.23     2.18     2.13     2.10     2.07     2.04     2.02     2.02     2.01     2.02     
 2.02     2.04     2.07     2.11     2.16     2.22     2.28     2.34     2.41     2.48     
 2.55     2.64     2.73     2.83     2.93     3.04     3.17     3.32     3.47     3.64     
 3.83     4.03     4.24     4.46     4.70     4.95     5.21     5.47     5.71     5.96     
 6.22     6.47     6.73     7.01     7.29     7.60     7.92     8.27     8.65     9.05     
 9.48     9.97     10.47    10.97    11.50    12.05    12.65    13.27    13.91    14.58    
 15.26    15.96    16.68    17.44    18.24    19.20    20.32    21.61    23.03    24.73    
 26.67    28.83    31.21    33.87    36.87    40.34    44.27    48.87    54.20    60.52    
 67.74    76.06    85.01    94.92    105.43   116.34   127.66   138.84   150.39   161.57   
 172.40   182.76   191.82   199.55   205.24   208.95   210.70   210.55   208.62   205.15   
 200.44   194.53   187.90   180.70   173.09   165.61   156.47   147.14   137.89   128.72   
 122.30   
227370.27 227667.53 226063.33 223163.05 218345.02 208590.46 175894.34 146622.05 121303.97 96349.02 
 66919.67 53725.20 34152.11 26485.23 16200.39 11185.00 6224.84  1264.68  1090.44  975.94   
 791.97   450.90   289.62   248.48   249.38   207.59   189.30   142.45   115.90   89.60    
 78.46    73.23    58.19    47.16    41.85    36.18    32.18    26.41    23.47    20.51    
 17.84    15.16    13.95    13.57    12.70    11.35    10.70    9.70     9.12     8.31     
 7.60     6.97     6.33     5.51     5.00     4.73     4.56     4.34     4.07     3.79     
 3.54     3.30     3.12     3.00     2.90     2.78     2.64     2.49     2.37     2.27     
 2.20     2.13     2.08     2.05     2.01     1.97     1.94     1.90     1.86     1.84     
 1.83     1.82     1.82     1.86     1.91     1.98     2.05     2.12     2.21     2.30     
 2.40     2.51     2.62     2.76     2.90     3.05     3.20     3.37     3.54     3.71     
 3.89     4.08     4.27     4.47     4.66     4.87     5.10     5.32     5.56     5.81     
 6.07     6.35     6.64     6.94     7.26     7.59     7.93     8.30     8.68     9.08     
 9.49     9.92     10.37    10.84    11.32    11.81    12.32    12.89    13.49    14.12    
 14.80    15.57    16.45    17.45    18.55    19.84    21.32    22.92    24.77    26.83    
 29.08    31.59    34.40    37.68    41.36    45.55    50.23    55.51    61.47    68.43    
 76.12    84.41    93.16    102.25   111.58   121.73   132.31   142.78   153.07   162.94   
 172.50   180.93   187.92   193.38   197.57   200.02   200.82   200.15   198.05   194.77   
 190.20   185.48   179.45   172.90   165.92   158.68   150.65   142.55   134.89   127.59   
 122.30   
227370.27 228457.38 227603.17 226005.01 223203.25 217520.00 209097.59 187017.85 155236.27 133771.39 
 111398.51 92039.08 66805.80 51884.41 41788.84 31852.99 21934.31 13863.59 9751.83  5640.06  
 1558.22  1367.01  946.73   646.43   453.05   356.29   269.07   182.26   137.99   111.67   
 94.83    82.41    72.62    64.99    58.29    51.94    46.43    41.83    37.30    33.51    
 30.12    27.19    24.62    22.00    19.25    16.25    14.35    12.92    11.87    10.97    
 10.17    9.49     8.87     8.28     7.65     7.16     6.72     6.35     6.00     5.68     
 5.39     5.12     4.84     4.58     4.35     4.15     3.98     3.80     3.61     3.43     
 3.22     3.02     2.83     2.66     2.50     2.37     2.23     2.10     1.99     1.90     
 1.79     1.70     1.70     1.72     1.76     1.82     1.90     1.98     2.07     2.16     
 2.26     2.38     2.49     2.62     2.75     2.88     3.03     3.18     3.35     3.52     
 3.68     3.86     4.04     4.24     4.45     4.67     4.90     5.13     5.37     5.62     
 5.88     6.14     6.43     6.72     7.01     7.32     7.63     7.95     8.27     8.63     
 8.99     9.40     9.80     10.23    10.72    11.24    11.81    12.45    13.15    13.93    
 14.82    15.84    16.95    18.17    19.52    21.06    22.75    24.65    26.73    29.06    
 31.75    34.69    38.05    41.79    46.02    50.80    55.99    61.75    67.91    74.86    
 82.22    90.13    98.26    107.05   116.03   125.17   134.30   143.02   151.59   159.49   
 166.58   172.85   178.05   182.25   185.24   187.14   187.88   187.49   186.32   183.60   
 180.07   176.10   171.76   166.83   161.58   155.81   149.41   143.16   137.46   131.87   
 122.30   
227370.27 228471.00 228241.30 226730.45 223598.58 217756.95 209703.27 201708.85 192537.63 179576.45 
 158914.31 132704.22 112243.85 95928.56 79305.52 65786.85 54102.60 39224.97 30008.26 23862.53 
 17255.39 11468.72 8814.27  6195.67  4859.43  4001.13  1472.92  1080.90  710.91   530.47   
 386.13   285.06   217.25   177.59   147.96   124.79   106.97   89.20    76.40    65.47    
 56.47    48.80    42.76    37.80    33.72    30.20    27.41    24.91    22.86    20.94    
 19.05    17.34    15.62    13.86    12.08    10.62    9.74     9.12     8.53     8.06     
 7.73     7.46     7.21     6.96     6.76     6.56     6.37     6.20     6.05     5.89     
 5.74     5.57     5.40     5.18     4.91     4.64     4.30     3.94     3.56     3.16     
 2.81     2.38     2.00     1.89     1.89     1.91     1.98     2.05     2.14     2.22     
 2.32     2.42     2.53     2.66     2.79     2.92     3.07     3.24     3.40     3.57     
 3.76     3.96     4.16     4.37     4.59     4.83     5.06     5.31     5.54     5.79     
 6.05     6.31     6.59     6.86     7.15     7.44     7.74     8.06     8.40     8.76     
 9.13     9.54     9.99     10.47    10.97    11.56    12.23    12.98    13.78    14.68    
 15.66    16.68    17.86    19.20    20.68    22.27    24.15    26.27    28.68    31.42    
 34.51    37.93    41.86    46.26    51.11    56.41    62.04    68.12    74.66    81.52    
 88.74    96.12    103.72   111.49   119.27   126.90   134.23   141.39   148.11   154.26   
 159.74   164.54   168.62   171.88   174.42   176.08   176.89   177.56   176.89   175.43   
 173.32   170.38   167.07   163.53   159.80   155.64   151.06   146.43   141.92   136.89   
 122.30   
227370.27 228453.05 228675.47 227741.53 224547.63 218768.72 211312.81 204057.75 195065.70 185568.05 
 175585.88 165160.46 152087.20 138465.50 124378.92 109850.84 95676.53 81143.37 68483.19 55403.25 
 44052.07 33036.26 27695.10 22371.92 19185.14 16557.86 13849.95 11491.01 10151.36 8793.72  
 7608.25  5987.56  4784.46  3875.34  3279.91  2684.49  2090.37  1645.35  1357.90  1137.71  
 931.03   754.75   613.13   490.06   385.90   307.86   255.35   202.91   158.01   123.87   
 99.23    80.38    66.39    56.20    47.71    41.56    36.62    32.52    29.21    26.39    
 24.23    22.46    21.11    19.87    18.72    17.61    16.48    15.45    14.33    13.56    
 13.27    13.03    12.86    12.72    12.56    12.37    12.18    11.96    11.73    11.22    
 10.15    8.51     6.41     4.04     1.64     1.56     1.60     1.66     1.72     1.78     
 1.86     1.94     2.02     2.12     2.23     2.35     2.47     2.60     2.75     2.90     
 3.06     3.23     3.41     3.60     3.81     4.02     4.24     4.47     4.70     4.96     
 5.21     5.47     5.73     6.02     6.31     6.60     6.91     7.22     7.54     7.89     
 8.27     8.69     9.15     9.65     10.17    10.74    11.38    12.09    12.85    13.69    
 14.63    15.68    16.82    18.07    19.53    21.16    23.08    25.29    27.72    30.57    
 33.92    37.59    41.70    46.22    51.13    56.50    62.13    68.14    74.40    80.92    
 87.60    94.37    101.04   107.94   114.65   121.29   127.83   133.97   140.17   145.88   
 151.25   156.17   160.66   164.82   168.37   171.37   174.14   175.75   176.57   176.70   
 176.09   174.76   172.78   170.05   166.83   163.39   159.64   155.34   150.49   145.48   
 122.30   
227370.27 227939.56 227834.35 226868.14 223903.54 218557.92 211386.36 204314.00 196089.32 187077.64 
 177620.90 167772.03 156975.35 145499.85 131426.41 115487.35 98438.52 83229.20 69948.12 58761.30 
 49283.35 41578.41 35480.86 30959.48 27336.58 24527.26 21723.89 19422.02 17602.24 15973.38 
 14416.85 12900.28 11449.74 10054.25 8804.17  7679.61  6686.64  5901.84  5290.38  4776.47  
 4385.54  4081.07  3816.28  3569.61  3376.19  3236.23  3094.95  2978.40  2826.84  2648.97  
 2470.82  2270.73  2078.29  1909.48  1747.46  1597.52  1462.51  1346.58  1231.53  1121.91  
 1024.70  931.87   846.49   767.69   696.30   630.42   568.52   508.42   455.23   406.62   
 359.43   317.55   280.42   246.88   213.42   185.75   161.53   138.83   121.28   106.06   
 91.57    79.39    68.56    58.90    49.20    18.16    12.38    7.66     2.27     1.42     
 1.24     0.90     0.88     0.86     0.84     0.84     0.84     0.85     0.85     0.86     
 0.88     0.90     0.91     0.92     0.92     0.93     0.94     0.97     1.00     1.03     
 1.06     1.09     1.13     1.17     1.21     1.25     1.29     1.33     1.37     1.43     
 1.48     1.54     1.61     1.69     1.78     1.87     1.98     2.10     2.23     2.38     
 2.54     2.73     2.94     3.18     3.44     3.75     4.11     4.53     4.99     5.54     
 6.14     6.81     7.55     8.37     9.27     10.27    11.33    12.45    13.64    14.86    
 16.11    17.43    18.79    20.19    21.64    23.14    24.74    26.41    28.26    30.13    
 32.11    34.21    36.36    38.71    41.19    43.90    46.88    50.67    54.39    58.49    
 63.26    68.45    74.24    80.51    87.05    93.87    100.62   107.48   114.34   121.08   
 122.30   
227370.27 227915.68 227643.76 226331.19 223340.46 218612.48 211704.29 204617.11 197004.28 188692.71 
 178979.03 168645.62 156515.95 143783.38 129558.06 115253.88 100456.50 86272.99 72986.03 60976.60 
 50713.51 43301.16 37649.36 33645.72 30018.85 27014.56 24875.77 22985.66 21167.04 19420.04 
 17788.00 16097.92 14501.92 12930.43 11602.52 10276.68 8950.84  7940.63  7138.78  6502.79  
 5997.45  5612.40  5276.84  5004.47  4781.04  4596.42  4418.12  4260.68  4115.81  3980.65  
 3857.90  3725.72  3582.26  3427.12  3258.67  3085.71  2898.71  2718.80  2555.74  2397.22  
 2247.94  2112.72  1986.81  1871.77  1762.03  1652.34  1547.05  1447.40  1348.99  1253.39  
 1168.26  1083.20  998.15   918.29   842.49   774.08   712.80   652.92   596.75   544.14   
 495.82   449.91   407.90   372.39   340.23   310.16   284.25   261.94   243.54   227.41   
 212.81   197.84   184.75   172.89   162.33   151.98   142.89   134.94   127.51   120.36   
 113.21   106.75   101.76   97.05    92.36    88.67    85.17    81.21    78.30    75.76    
 72.75    70.33    67.82    64.90    62.22    59.68    56.81    54.34    51.77    49.43    
 46.91    44.36    41.95    39.34    36.31    33.42    30.17    26.58    22.68    18.17    
 13.09    9.32     7.01     5.37     4.01     3.01     2.87     3.12     3.51     3.95     
 4.45     5.02     5.62     6.34     7.15     8.01     8.94     9.90     10.94    12.02    
 13.13    14.25    15.41    16.60    17.79    19.00    20.30    21.61    22.97    24.41    
 25.92    27.53    29.21    31.06    32.99    35.13    37.52    40.29    43.62    48.08    
 52.69    57.46    64.21    71.00    78.28    86.29    94.46    102.77   111.02   119.30   
 122.30   
227370.27 227740.23 227032.36 225333.36 222647.97 218719.77 213484.31 206825.20 198850.64 188465.97 
 176082.02 161992.60 146777.53 131239.53 116373.80 102476.42 89619.90 76997.12 65793.98 56505.33 
 49060.47 42924.31 38364.76 34669.92 31559.55 28967.68 26636.93 24430.61 22225.82 20143.25 
 18103.55 16130.72 14172.99 12397.64 10874.53 9533.25  8429.14  7549.82  6862.78  6381.40  
 6028.00  5741.27  5509.98  5308.20  5140.92  4987.56  4831.19  4689.75  4564.36  4446.18  
 4331.23  4219.45  4105.90  3978.31  3847.02  3700.48  3546.26  3382.68  3203.54  3024.51  
 2855.72  2708.06  2560.40  2412.89  2276.59  2138.87  2003.74  1873.52  1744.25  1622.81  
 1499.30  1381.99  1273.82  1175.27  1078.28  985.46   893.32   809.65   733.36   663.89   
 597.76   537.72   484.60   438.83   398.17   364.54   337.29   314.34   294.27   277.60   
 262.45   247.84   233.24   218.68   208.04   198.58   189.41   181.18   173.37   166.06   
 159.86   153.97   148.65   143.67   139.38   134.96   131.21   127.68   124.52   121.60   
 118.80   116.47   114.02   111.30   109.01   106.81   104.70   102.51   100.53   98.55    
 96.49    94.80    93.28    91.22    89.26    87.36    85.27    83.16    81.32    79.32    
 77.62    75.31    73.50    71.55    69.57    67.47    65.03    62.39    59.55    56.75    
 53.39    49.61    46.64    43.67    39.79    36.17    32.98    15.34    11.32    9.88     
 10.37    11.53    12.87    14.25    15.66    17.11    18.58    20.04    21.54    23.09    
 24.62    26.14    27.72    29.41    31.14    32.97    35.01    37.32    39.86    42.85    
 46.66    51.36    57.46    64.08    71.77    80.09    89.49    99.07    108.99   118.90   
 122.30   
227370.27 227133.69 225434.04 222952.65 219655.45 215356.41 209284.62 199895.98 187061.01 170900.91 
 152170.25 133251.37 116363.65 101719.54 90015.59 79531.44 71046.97 63188.60 56171.96 50223.99 
 45062.92 40784.70 36762.87 33007.61 29333.54 25900.98 22513.77 19309.46 16424.85 13933.63 
 12033.63 10858.52 9690.05  8999.98  8468.12  8011.59  7631.33  7285.70  6945.67  6648.70  
 6364.14  6094.48  5846.96  5633.62  5424.99  5246.01  5078.08  4919.44  4764.08  4599.54  
 4424.19  4281.85  4161.81  4042.78  3924.16  3785.94  3648.76  3511.58  3367.20  3225.56  
 3078.34  2927.48  2787.77  2642.18  2501.73  2353.73  2214.05  2071.66  1937.24  1793.68  
 1650.45  1526.44  1405.71  1286.27  1178.87  1071.59  964.31   862.35   777.33   700.76   
 631.25   568.86   514.33   464.22   423.59   390.42   362.36   337.31   316.38   299.96   
 285.01   269.98   256.41   244.80   234.11   225.26   217.64   211.25   205.72   200.51   
 195.90   191.72   187.94   184.51   181.46   178.51   175.78   173.60   171.13   169.00   
 166.78   164.78   162.52   160.61   158.61   156.66   154.75   152.93   151.10   149.28   
 147.19   144.85   142.55   140.03   137.90   135.86   133.69   131.21   128.70   125.79   
 122.88   120.23   117.41   114.76   111.72   108.86   106.18   103.33   100.37   97.67    
 94.58    91.38    88.96    86.32    83.83    81.58    77.08    73.85    71.04    67.29    
 63.96    57.25    53.62    51.56    49.18    27.24    20.70    20.32    21.90    22.64    
 23.26    24.99    27.02    29.21    31.45    33.72    35.90    38.18    40.73    43.47    
 46.63    50.36    54.96    60.47    66.87    74.66    84.51    95.17    106.20   117.01   
