IESNA:LM-63-2002
[TEST] 1
[TESTLAB] AOK
[TESTDATE] 2022-06-25
[ISSUEDATE] 2022-06-25 11:45:21
[NEARFIELD] 
[LAMPPOSITION] 0,0
[OTHER] EVERFINE GO-2000A_V1 SYSTEM
[MANUFAC] AOK
[LUMCAT] A
[LUMINAIRE] AOK-600WiSF-HV-S35-00-5070-2030D-P
[LAMPCAT] B
[LAMP] 3535
[BALLAST] E
[BALLASTCAT] F
[OTHER] 
[OTHER] Gamma(deg)    Fz(lm)      Ft(lm)     %Lum    %Lamp
[OTHER]   0- 10     23830.58    23830.58    31.29    31.29
[OTHER]  10- 20     25933.45    49764.04    65.34    65.34
[OTHER]  20- 30     10938.13    60702.16    79.71    79.71
[OTHER]  30- 40      5425.41    66127.57    86.83    86.83
[OTHER]  40- 50      3442.66    69570.23    91.35    91.35
[OTHER]  50- 60      2659.04    72229.27    94.84    94.84
[OTHER]  60- 70      1828.52    74057.79    97.24    97.24
[OTHER]  70- 80       882.73    74940.52    98.40    98.40
[OTHER]  80- 90       384.23    75324.75    98.91    98.91
[OTHER]  90-100       212.46    75537.21    99.18    99.18
[OTHER] 100-110       155.38    75692.59    99.39    99.39
[OTHER] 110-120       125.00    75817.59    99.55    99.55
[OTHER] 120-130        95.04    75912.63    99.68    99.68
[OTHER] 130-140        68.88    75981.51    99.77    99.77
[OTHER] 140-150        56.24    76037.76    99.84    99.84
[OTHER] 150-160        57.54    76095.30    99.92    99.92
[OTHER] 160-170        46.19    76141.49    99.98    99.98
[OTHER] 170-180        16.65    76158.15   100.00   100.00
[OTHER] 
TILT=NONE
1 76158 1 181 25 1 2 0.150 0.200 0.000
1.000 1 622.218
0.0    1.0    2.0    3.0    4.0    5.0    6.0    7.0    8.0    9.0    
 10.0   11.0   12.0   13.0   14.0   15.0   16.0   17.0   18.0   19.0   
 20.0   21.0   22.0   23.0   24.0   25.0   26.0   27.0   28.0   29.0   
 30.0   31.0   32.0   33.0   34.0   35.0   36.0   37.0   38.0   39.0   
 40.0   41.0   42.0   43.0   44.0   45.0   46.0   47.0   48.0   49.0   
 50.0   51.0   52.0   53.0   54.0   55.0   56.0   57.0   58.0   59.0   
 60.0   61.0   62.0   63.0   64.0   65.0   66.0   67.0   68.0   69.0   
 70.0   71.0   72.0   73.0   74.0   75.0   76.0   77.0   78.0   79.0   
 80.0   81.0   82.0   83.0   84.0   85.0   86.0   87.0   88.0   89.0   
 90.0   91.0   92.0   93.0   94.0   95.0   96.0   97.0   98.0   99.0   
 100.0  101.0  102.0  103.0  104.0  105.0  106.0  107.0  108.0  109.0  
 110.0  111.0  112.0  113.0  114.0  115.0  116.0  117.0  118.0  119.0  
 120.0  121.0  122.0  123.0  124.0  125.0  126.0  127.0  128.0  129.0  
 130.0  131.0  132.0  133.0  134.0  135.0  136.0  137.0  138.0  139.0  
 140.0  141.0  142.0  143.0  144.0  145.0  146.0  147.0  148.0  149.0  
 150.0  151.0  152.0  153.0  154.0  155.0  156.0  157.0  158.0  159.0  
 160.0  161.0  162.0  163.0  164.0  165.0  166.0  167.0  168.0  169.0  
 170.0  171.0  172.0  173.0  174.0  175.0  176.0  177.0  178.0  179.0  
 180.0  
0.0    15.0   30.0   45.0   60.0   75.0   90.0   105.0  120.0  135.0  
 150.0  165.0  180.0  195.0  210.0  225.0  240.0  255.0  270.0  285.0  
 300.0  315.0  330.0  345.0  360.0  
333213.28 333446.43 329513.05 320166.89 274372.08 226778.25 181302.77 130416.56 95479.76 60737.89 
 39336.59 20052.19 6961.22  895.90   746.37   659.16   548.21   294.00   125.62   86.12    
 48.18    36.74    29.35    24.12    20.44    17.74    15.52    13.73    12.48    11.36    
 10.64    11.09    11.03    11.05    10.15    9.55     8.85     7.82     6.96     6.29     
 6.08     5.86     5.57     5.35     5.11     4.96     5.04     5.03     4.63     4.34     
 4.19     4.10     4.09     4.09     4.24     4.28     4.16     4.06     4.06     4.05     
 4.04     4.04     4.03     4.03     4.00     4.00     3.97     3.95     3.93     3.93     
 3.93     3.93     3.93     3.93     3.93     3.93     3.93     3.93     3.93     3.93     
 3.92     3.88     3.88     3.97     4.23     4.44     4.56     4.67     4.72     4.77     
 4.82     4.90     4.95     4.95     4.96     4.98     5.08     5.21     5.39     5.60     
 5.86     6.14     6.46     6.82     7.20     7.60     7.99     8.38     8.76     9.14     
 9.51     9.85     10.21    10.56    10.94    11.37    11.81    12.29    12.79    13.37    
 13.94    14.56    15.19    15.87    16.58    17.34    18.10    18.93    19.81    20.73    
 21.68    22.65    23.66    24.67    25.77    27.09    28.64    30.48    32.63    35.14    
 37.95    41.22    44.96    49.13    53.82    59.17    65.32    72.40    80.27    89.79    
 100.69   112.88   126.41   140.53   156.16   172.50   189.03   205.61   222.40   239.21   
 256.01   270.80   283.67   294.01   301.79   306.35   307.96   306.55   302.37   296.04   
 287.95   278.33   267.26   255.68   243.46   230.89   218.00   205.08   191.84   177.40   
 160.86   
333213.28 333191.30 330560.95 323045.47 298318.06 250401.71 202551.66 160984.32 110581.38 83423.86 
 50075.93 34546.28 19074.02 10358.61 1719.15  1524.54  1103.70  812.23   826.45   652.42   
 491.58   336.37   279.05   221.73   164.53   121.94   95.67    74.91    59.63    49.66    
 44.98    40.45    37.52    28.54    21.42    17.77    14.83    12.67    10.99    9.75     
 9.18     9.20     9.11     8.94     8.57     8.26     7.98     7.71     7.51     7.12     
 6.71     6.42     6.16     5.91     5.69     5.48     5.26     5.10     4.97     4.80     
 4.61     4.44     4.26     4.10     3.95     3.86     3.75     3.66     3.59     3.52     
 3.44     3.36     3.28     3.22     3.18     3.14     3.09     3.09     3.09     3.11     
 3.14     3.17     3.21     3.25     3.31     3.38     3.44     3.53     3.62     3.73     
 3.84     3.96     4.08     4.21     4.35     4.53     4.71     4.94     5.18     5.45     
 5.71     6.02     6.34     6.68     7.06     7.43     7.80     8.16     8.53     8.90     
 9.27     9.65     10.03    10.42    10.85    11.33    11.84    12.38    12.93    13.50    
 14.10    14.76    15.47    16.19    16.94    17.73    18.57    19.46    20.38    21.32    
 22.29    23.32    24.38    25.50    26.74    28.26    30.08    32.22    34.58    37.38    
 40.60    44.16    48.17    52.68    57.80    63.64    70.16    77.77    86.48    96.47    
 107.98   121.42   134.88   150.10   165.55   181.74   198.28   214.48   231.06   247.02   
 262.19   276.20   288.22   297.63   303.99   307.00   307.11   304.23   298.74   291.36   
 282.31   272.02   261.07   249.43   237.56   225.38   212.85   200.21   186.27   171.38   
 160.86   
333213.28 332395.61 329371.26 321256.56 309226.79 269666.08 224542.48 183968.06 146502.44 114430.99 
 82423.39 50415.81 36962.03 19722.63 12585.02 7494.46  2424.11  2163.62  1710.65  1313.49  
 1085.06  858.64   632.22   459.03   358.56   288.70   207.97   170.62   152.21   125.37   
 105.41   85.53    74.50    64.29    56.51    49.01    42.46    36.35    31.66    27.25    
 23.25    19.77    17.54    15.89    14.81    13.71    12.78    12.18    11.40    10.56    
 9.73     8.82     7.94     7.36     6.95     6.62     6.24     5.85     5.47     5.11     
 4.85     4.66     4.51     4.36     4.19     3.99     3.77     3.58     3.43     3.32     
 3.23     3.15     3.08     3.02     2.96     2.90     2.84     2.77     2.73     2.71     
 2.71     2.72     2.77     2.85     2.93     3.03     3.14     3.26     3.39     3.54     
 3.70     3.87     4.06     4.26     4.48     4.71     4.95     5.20     5.46     5.72     
 5.98     6.26     6.54     6.83     7.15     7.47     7.81     8.17     8.54     8.93     
 9.33     9.74     10.18    10.65    11.12    11.62    12.11    12.65    13.21    13.81    
 14.41    15.06    15.74    16.44    17.15    17.92    18.72    19.57    20.48    21.46    
 22.54    23.84    25.32    26.99    28.92    31.07    33.59    36.41    39.59    43.12    
 47.03    51.36    56.18    61.73    68.11    75.19    83.10    91.91    101.63   112.71   
 125.01   137.94   151.46   165.30   179.25   193.96   209.34   224.49   239.28   254.06   
 266.75   277.72   286.14   291.98   295.43   296.21   294.51   290.64   284.59   277.20   
 268.31   258.70   248.73   238.13   226.97   215.62   204.19   192.89   181.01   169.14   
 160.86   
333213.28 332371.39 328545.96 321494.50 311253.30 297222.33 263365.26 229508.19 195627.24 158602.30 
 126481.45 95054.18 68830.20 56738.48 36042.90 26046.87 16108.55 12240.65 7163.09  2121.21  
 1873.00  1549.92  1119.52  787.93   550.54   355.43   273.01   191.07   161.40   138.37   
 119.91   105.26   93.36    83.47    74.87    67.14    59.86    54.28    49.52    44.59    
 39.95    35.86    32.17    28.79    25.59    22.32    18.96    16.44    14.32    12.93    
 12.00    11.21    10.52    9.94     9.44     8.99     8.54     8.16     7.81     7.49     
 7.18     6.87     6.58     6.32     6.10     5.89     5.66     5.44     5.18     4.92     
 4.65     4.36     4.10     3.87     3.63     3.38     3.16     2.97     2.79     2.65     
 2.58     2.59     2.63     2.70     2.78     2.89     3.00     3.13     3.27     3.42     
 3.58     3.75     3.94     4.14     4.35     4.56     4.78     5.02     5.27     5.53     
 5.80     6.08     6.38     6.69     7.03     7.36     7.71     8.08     8.45     8.83     
 9.24     9.66     10.08    10.50    10.95    11.44    11.95    12.47    12.99    13.52    
 14.09    14.70    15.38    16.11    16.88    17.75    18.76    19.87    21.10    22.49    
 24.05    25.77    27.75    29.91    32.28    34.95    37.99    41.34    45.03    49.17    
 53.90    59.15    64.95    71.47    78.77    86.91    95.67    105.33   115.63   127.45   
 139.28   151.49   163.96   177.37   190.60   204.05   217.13   229.46   241.25   251.57   
 260.55   268.11   273.66   277.42   279.23   279.17   277.33   273.81   268.99   262.84   
 256.28   248.57   240.02   230.93   221.89   212.76   203.45   194.04   184.42   174.84   
 160.86   
333213.28 331231.19 325496.90 317655.34 306994.92 294757.53 279963.72 262265.61 242063.54 209972.77 
 174178.12 146035.61 122881.86 100554.09 78234.74 61491.49 42928.48 33077.15 26505.96 17766.82 
 13392.51 10757.94 8143.15  5528.37  3767.78  1617.18  1186.71  960.75   736.71   532.42   
 385.25   292.55   235.89   198.03   166.33   140.41   121.43   102.52   88.60    77.03    
 67.67    60.61    54.40    49.10    44.41    39.90    36.27    33.50    30.91    28.72    
 26.80    24.80    22.51    20.30    17.96    15.81    14.09    12.87    12.05    11.48    
 11.08    10.78    10.45    10.15    9.90     9.71     9.50     9.30     9.11     8.91     
 8.65     8.34     7.96     7.55     7.08     6.55     5.91     5.17     4.43     3.69     
 3.10     2.87     2.85     2.89     2.98     3.08     3.20     3.32     3.45     3.59     
 3.75     3.92     4.10     4.30     4.52     4.74     4.98     5.24     5.52     5.80     
 6.10     6.41     6.74     7.08     7.43     7.79     8.16     8.54     8.93     9.32     
 9.72     10.12    10.55    10.98    11.44    11.91    12.40    12.90    13.47    14.06    
 14.73    15.45    16.27    17.16    18.12    19.16    20.40    21.74    23.19    24.75    
 26.48    28.42    30.55    32.99    35.65    38.73    42.23    46.25    50.81    55.93    
 61.60    67.97    74.83    82.56    90.98    100.07   109.59   119.59   130.12   141.23   
 152.65   164.05   175.40   186.62   198.01   208.87   218.93   228.09   236.32   243.92   
 251.52   256.28   259.86   262.33   263.42   263.25   261.79   259.22   255.57   251.42   
 246.03   240.27   233.62   226.90   220.02   212.79   205.37   197.65   189.66   181.49   
 160.86   
333213.28 330399.65 324678.03 316575.11 305902.51 294241.08 281144.21 266642.47 249756.64 232849.76 
 213220.36 192729.29 170297.89 148182.01 126380.40 106566.34 88662.25 71781.04 56572.52 43885.00 
 35991.46 30743.07 26719.32 22694.20 18521.95 15919.06 13877.13 12025.17 10102.57 7905.35  
 6482.50  5334.67  4366.03  3638.40  2995.26  2354.25  1960.44  1622.76  1323.25  1072.83  
 867.20   683.87   538.58   434.61   351.41   289.64   227.88   166.38   134.50   110.12   
 92.68    79.15    68.29    60.26    52.88    47.43    43.11    39.14    36.21    33.84    
 31.89    30.00    28.54    27.21    26.10    24.83    23.27    21.74    20.50    19.70    
 19.30    19.17    19.06    18.91    18.76    18.51    18.11    17.34    15.72    13.30    
 9.86     5.69     2.56     2.44     2.50     2.58     2.66     2.75     2.85     2.95     
 3.07     3.21     3.36     3.53     3.71     3.91     4.12     4.35     4.59     4.86     
 5.13     5.41     5.70     6.02     6.36     6.71     7.07     7.45     7.83     8.23     
 8.63     9.06     9.50     9.94     10.38    10.88    11.39    11.91    12.46    13.06    
 13.73    14.48    15.31    16.21    17.21    18.29    19.48    20.80    22.25    23.82    
 25.54    27.49    29.66    32.12    34.92    38.15    41.95    46.23    51.03    56.47    
 62.63    69.44    76.83    84.83    93.39    102.55   111.98   122.26   132.55   142.66   
 153.12   163.23   173.16   183.36   192.95   202.33   211.19   219.42   227.46   234.52   
 240.91   246.63   251.36   255.42   258.32   260.18   260.89   260.84   259.35   256.84   
 253.66   249.67   244.65   238.79   232.79   226.12   218.78   211.20   203.41   195.40   
 160.86   
333213.28 329203.43 322595.93 313881.44 302968.46 291658.15 278785.29 264923.37 250549.27 234030.44 
 217492.78 199193.24 179270.60 157641.10 135267.85 113982.52 95495.32 79936.91 67172.56 56704.25 
 48274.65 41676.37 36443.04 32151.39 28514.88 25614.67 23271.25 20930.31 18794.03 16728.88 
 14808.06 13015.64 11451.64 10043.35 8845.25  7889.68  7154.79  6507.84  5973.46  5559.56  
 5193.17  4858.96  4588.42  4402.21  4205.75  4020.03  3799.17  3557.04  3298.29  3028.17  
 2768.81  2543.38  2318.21  2113.21  1922.94  1748.30  1587.31  1431.59  1292.87  1169.00  
 1058.14  958.05   862.78   773.52   689.99   612.02   542.92   480.74   424.37   373.59   
 328.39   287.75   256.10   224.44   192.88   169.17   149.40   131.47   115.92   102.58   
 90.44    78.47    65.49    14.50    4.46     2.47     1.89     1.69     1.54     1.44     
 1.37     1.29     1.28     1.28     1.28     1.30     1.32     1.35     1.38     1.40     
 1.43     1.47     1.50     1.54     1.58     1.62     1.67     1.72     1.77     1.84     
 1.89     1.95     2.02     2.09     2.16     2.23     2.31     2.38     2.48     2.58     
 2.69     2.81     2.94     3.09     3.25     3.44     3.64     3.87     4.11     4.38     
 4.70     5.04     5.41     5.90     6.41     6.99     7.67     8.44     9.30     10.28    
 11.37    12.56    13.84    15.27    16.80    18.46    20.17    21.95    23.76    25.63    
 27.58    29.52    31.52    33.56    35.66    37.83    40.14    42.61    45.23    47.94    
 50.75    53.77    57.00    60.52    64.28    68.50    73.20    78.78    84.78    91.72    
 99.62    108.37   117.89   128.03   138.59   149.35   160.24   171.15   181.69   191.76   
 160.86   
333213.28 328782.50 321923.22 313702.42 303438.33 292230.35 281252.91 269052.97 255807.54 240829.14 
 224762.46 207000.46 187882.59 167680.15 146932.23 126256.73 109188.60 92147.07 75105.54 63741.48 
 55339.03 48693.27 43490.92 39415.29 35820.17 32707.80 30055.26 27570.15 25087.15 22707.42 
 20439.62 18295.32 16266.96 14396.59 12761.16 11357.51 10344.18 9333.95  8597.18  8035.63  
 7591.75  7229.26  6898.57  6619.77  6364.33  6142.09  5920.13  5716.80  5515.57  5320.96  
 5118.40  4899.34  4668.49  4430.54  4181.67  3937.74  3699.67  3486.89  3292.19  3107.34  
 2924.51  2757.30  2597.51  2445.16  2304.12  2164.36  2024.60  1892.22  1762.24  1638.48  
 1522.54  1412.50  1305.89  1199.80  1106.12  1012.56  928.72   849.28   772.67   706.20   
 645.51   589.71   539.89   495.80   456.26   423.07   393.49   366.33   346.95   327.19   
 307.67   289.96   275.27   260.81   247.69   235.70   223.48   211.80   202.34   192.19   
 182.83   174.22   166.50   159.21   151.71   144.66   138.15   132.32   127.26   121.27   
 115.28   110.38   104.99   99.76    94.50    89.64    85.39    80.88    76.78    72.13    
 67.73    63.67    59.59    54.90    50.56    46.11    41.73    35.75    29.11    22.59    
 16.71    12.46    10.20    8.73     7.21     5.69     5.44     5.89     6.57     7.40     
 8.34     9.35     10.48    11.74    13.12    14.60    16.14    17.76    19.50    21.28    
 23.10    24.91    26.78    28.65    30.55    32.37    34.30    36.30    38.29    40.35    
 42.46    44.64    46.89    49.34    51.92    54.90    58.47    62.69    67.72    74.10    
 81.34    89.89    99.64    110.32   121.83   133.90   146.20   158.86   171.10   183.04   
 160.86   
333213.28 329323.99 323439.90 315376.59 305882.72 296181.55 285311.25 273500.70 260530.87 243918.12 
 227305.36 210656.92 190776.99 170758.09 151074.18 131664.61 112948.61 95461.94 79815.08 67908.56 
 59850.24 53808.19 48856.97 44782.17 41058.42 37660.29 34717.88 31819.18 29026.27 26368.51 
 23710.75 21056.17 18709.49 16631.47 14743.28 13103.04 11694.52 10532.91 9614.82  8948.58  
 8449.71  8082.09  7768.58  7518.66  7281.76  7055.20  6843.64  6643.28  6463.96  6278.99  
 6110.46  5944.43  5759.09  5560.45  5346.74  5128.66  4904.63  4673.16  4441.89  4193.92  
 3955.73  3718.55  3499.59  3300.64  3107.27  2911.92  2727.05  2542.18  2357.43  2183.51  
 2014.73  1852.95  1703.24  1559.72  1429.46  1303.20  1185.46  1076.60  974.47   885.78   
 805.19   736.93   678.58   628.68   584.27   545.41   512.12   480.84   456.66   434.09   
 412.37   391.32   372.86   357.11   342.29   328.30   315.91   303.86   292.70   282.73   
 272.99   264.48   256.57   249.54   242.81   236.33   229.85   223.38   218.43   213.59   
 209.06   204.43   200.03   196.07   191.95   187.91   183.95   180.15   176.30   172.71   
 169.50   165.98   162.60   159.46   156.04   152.27   148.94   145.42   141.86   138.48   
 134.79   130.89   127.11   123.22   118.97   114.67   109.72   104.23   98.60    92.93    
 86.85    80.11    72.24    64.42    60.01    57.37    55.02    49.26    25.34    19.56    
 18.95    19.98    21.85    23.96    26.13    28.33    30.53    32.74    35.00    37.29    
 39.58    41.84    44.04    46.25    48.50    50.76    53.27    56.27    59.80    64.21    
 69.69    76.58    85.12    94.91    106.02   118.52   132.30   146.69   161.28   175.78   
 160.86   
333213.28 329401.00 323148.68 315115.54 306207.31 296574.83 285700.01 273015.74 256640.73 235345.11 
 211228.93 187674.77 166590.11 147169.47 129836.44 115370.54 100926.37 86482.21 75826.83 67105.83 
 60172.05 54559.35 49564.00 44937.42 40325.62 36015.04 31753.78 27777.60 23800.53 20135.72 
 17090.88 14887.67 13340.67 12256.67 11611.08 10969.17 10327.27 9865.16  9459.88  9076.46  
 8736.39  8412.97  8119.80  7841.55  7601.86  7384.30  7167.72  6979.29  6790.30  6592.96  
 6390.96  6181.65  5973.46  5787.44  5597.28  5394.80  5189.83  4982.07  4770.72  4554.19  
 4335.63  4111.72  3900.22  3690.42  3475.10  3264.08  3057.45  2852.45  2647.07  2445.65  
 2247.03  2073.81  1905.22  1742.14  1588.60  1442.68  1307.53  1181.18  1080.37  979.78   
 896.77   826.68   759.84   702.07   650.09   605.10   562.28   528.04   502.66   479.88   
 457.30   436.80   418.16   401.92   387.97   375.43   364.27   354.28   346.00   337.92   
 330.13   323.53   317.46   311.82   306.66   301.50   297.11   292.90   289.19   285.24   
 281.36   277.58   274.43   271.29   267.98   264.58   261.52   258.48   255.38   252.16   
 248.29   244.67   240.85   237.02   233.45   229.96   226.05   221.75   217.42   213.20   
 208.86   204.81   200.17   195.61   190.66   186.18   181.63   177.15   172.21   167.17   
 162.24   156.91   152.26   147.27   142.49   137.63   132.09   123.08   114.05   104.61   
 99.23    95.04    85.97    82.93    82.13    77.99    55.31    37.68    34.96    35.08    
 36.57    38.34    40.93    43.84    46.74    49.72    52.63    55.44    58.38    61.73    
