IESNA:LM-63-2002
[TEST] 1
[TESTLAB] AOK
[TESTDATE] 2022-06-25
[ISSUEDATE] 2022-06-25 13:34:08
[NEARFIELD] 
[LAMPPOSITION] 0,0
[OTHER] EVERFINE GO-2000A_V1 SYSTEM
[MANUFAC] AOK
[LUMCAT] A
[LUMINAIRE] AOK-600WiSF-HV-S35-00-5070-2030D-P
[LAMPCAT] B
[LAMP] 3535
[BALLAST] E
[BALLASTCAT] F
[OTHER] 
[OTHER] Gamma(deg)    Fz(lm)      Ft(lm)     %Lum    %Lamp
[OTHER]   0- 10     23468.09    23468.09    31.95    31.95
[OTHER]  10- 20     24890.46    48358.56    65.84    65.84
[OTHER]  20- 30     10312.37    58670.93    79.88    79.88
[OTHER]  30- 40      5133.87    63804.79    86.87    86.87
[OTHER]  40- 50      3279.12    67083.92    91.33    91.33
[OTHER]  50- 60      2572.48    69656.40    94.84    94.84
[OTHER]  60- 70      1773.09    71429.49    97.25    97.25
[OTHER]  70- 80       849.40    72278.89    98.41    98.41
[OTHER]  80- 90       367.16    72646.05    98.91    98.91
[OTHER]  90-100       203.79    72849.84    99.19    99.19
[OTHER] 100-110       149.51    72999.35    99.39    99.39
[OTHER] 110-120       120.59    73119.94    99.55    99.55
[OTHER] 120-130        91.71    73211.66    99.68    99.68
[OTHER] 130-140        66.27    73277.93    99.77    99.77
[OTHER] 140-150        53.80    73331.73    99.84    99.84
[OTHER] 150-160        55.28    73387.00    99.92    99.92
[OTHER] 160-170        45.03    73432.03    99.98    99.98
[OTHER] 170-180        16.31    73448.34   100.00   100.00
[OTHER] 
TILT=NONE
1 73448 1 181 25 1 2 0.150 0.200 0.000
1.000 1 597.849
0.0    1.0    2.0    3.0    4.0    5.0    6.0    7.0    8.0    9.0    
 10.0   11.0   12.0   13.0   14.0   15.0   16.0   17.0   18.0   19.0   
 20.0   21.0   22.0   23.0   24.0   25.0   26.0   27.0   28.0   29.0   
 30.0   31.0   32.0   33.0   34.0   35.0   36.0   37.0   38.0   39.0   
 40.0   41.0   42.0   43.0   44.0   45.0   46.0   47.0   48.0   49.0   
 50.0   51.0   52.0   53.0   54.0   55.0   56.0   57.0   58.0   59.0   
 60.0   61.0   62.0   63.0   64.0   65.0   66.0   67.0   68.0   69.0   
 70.0   71.0   72.0   73.0   74.0   75.0   76.0   77.0   78.0   79.0   
 80.0   81.0   82.0   83.0   84.0   85.0   86.0   87.0   88.0   89.0   
 90.0   91.0   92.0   93.0   94.0   95.0   96.0   97.0   98.0   99.0   
 100.0  101.0  102.0  103.0  104.0  105.0  106.0  107.0  108.0  109.0  
 110.0  111.0  112.0  113.0  114.0  115.0  116.0  117.0  118.0  119.0  
 120.0  121.0  122.0  123.0  124.0  125.0  126.0  127.0  128.0  129.0  
 130.0  131.0  132.0  133.0  134.0  135.0  136.0  137.0  138.0  139.0  
 140.0  141.0  142.0  143.0  144.0  145.0  146.0  147.0  148.0  149.0  
 150.0  151.0  152.0  153.0  154.0  155.0  156.0  157.0  158.0  159.0  
 160.0  161.0  162.0  163.0  164.0  165.0  166.0  167.0  168.0  169.0  
 170.0  171.0  172.0  173.0  174.0  175.0  176.0  177.0  178.0  179.0  
 180.0  
0.0    15.0   30.0   45.0   60.0   75.0   90.0   105.0  120.0  135.0  
 150.0  165.0  180.0  195.0  210.0  225.0  240.0  255.0  270.0  285.0  
 300.0  315.0  330.0  345.0  360.0  
328591.28 329619.01 326920.08 319114.16 282298.95 233644.83 187681.65 135912.00 103810.23 71948.70 
 40087.18 20938.15 11121.39 7577.31  4100.61  623.91   494.92   337.95   144.87   95.29    
 47.48    35.25    27.93    22.72    19.04    16.45    14.31    12.61    11.40    10.33    
 9.61     9.88     10.14    10.21    9.56     8.91     8.40     7.42     6.57     5.88     
 5.64     5.47     5.16     4.99     4.75     4.61     4.64     4.73     4.41     4.06     
 3.94     3.84     3.83     3.83     3.95     4.04     3.95     3.86     3.85     3.85     
 3.84     3.83     3.82     3.82     3.81     3.80     3.78     3.76     3.73     3.73     
 3.73     3.72     3.72     3.71     3.71     3.71     3.71     3.71     3.71     3.72     
 3.72     3.72     3.71     3.75     3.98     4.21     4.34     4.46     4.50     4.55     
 4.61     4.69     4.75     4.77     4.77     4.79     4.88     5.00     5.16     5.36     
 5.58     5.85     6.16     6.49     6.86     7.24     7.63     8.00     8.36     8.71     
 9.06     9.40     9.72     10.05    10.41    10.79    11.20    11.65    12.14    12.64    
 13.18    13.73    14.34    14.97    15.60    16.27    16.99    17.76    18.55    19.37    
 20.23    21.09    21.98    22.93    23.93    25.04    26.38    27.97    29.92    32.16    
 34.76    37.77    41.18    45.03    49.35    54.18    59.71    66.27    73.67    82.32    
 92.30    103.64   116.54   130.59   145.80   161.58   177.78   194.48   211.11   227.37   
 243.56   259.75   273.07   284.10   292.40   297.68   299.96   299.22   295.79   290.10   
 282.63   273.34   262.83   251.40   239.46   226.99   214.36   201.63   188.56   174.50   
 160.25   
328591.28 329325.98 327413.03 320815.64 302573.06 254940.58 207347.44 163699.84 113045.06 83505.40 
 51267.89 38850.15 26432.41 14014.67 1705.58  1480.11  1175.25  820.56   801.44   634.43   
 503.16   406.33   309.50   213.00   156.58   121.23   93.73    74.13    58.83    46.91    
 41.87    37.89    35.90    29.45    21.04    16.96    14.10    11.98    10.38    9.14     
 8.53     8.52     8.48     8.38     8.02     7.74     7.48     7.23     7.05     6.71     
 6.32     6.05     5.81     5.57     5.38     5.18     4.98     4.82     4.70     4.54     
 4.36     4.21     4.03     3.89     3.75     3.66     3.55     3.48     3.41     3.36     
 3.26     3.18     3.11     3.06     3.01     2.98     2.93     2.93     2.92     2.93     
 2.96     3.00     3.06     3.10     3.16     3.23     3.27     3.35     3.44     3.53     
 3.65     3.77     3.88     4.01     4.16     4.32     4.51     4.72     4.94     5.19     
 5.45     5.72     6.04     6.37     6.73     7.09     7.44     7.79     8.15     8.49     
 8.84     9.19     9.56     9.92     10.31    10.74    11.23    11.72    12.22    12.76    
 13.33    13.93    14.58    15.24    15.93    16.66    17.44    18.24    19.07    19.93    
 20.82    21.72    22.65    23.66    24.77    26.06    27.69    29.59    31.79    34.31    
 37.27    40.55    44.20    48.38    53.06    58.40    64.44    71.42    79.44    88.78    
 99.64    111.78   125.94   140.12   155.30   171.12   187.37   203.32   219.78   235.77   
 251.01   265.16   277.39   287.49   294.41   298.07   298.74   296.46   291.49   284.70   
 276.00   266.08   255.47   244.00   232.39   220.44   208.10   195.78   182.18   167.69   
 160.25   
328591.28 328389.34 326094.56 318638.57 307608.90 274209.49 227040.65 187118.59 149104.26 116454.17 
 83867.74 51281.32 36266.77 19770.25 14429.48 8406.88  2375.93  2098.70  1714.07  1302.80  
 1072.99  845.36   617.72   456.46   348.83   280.19   210.96   163.12   147.72   126.11   
 104.42   82.73    72.13    62.39    54.67    47.45    41.38    34.98    30.26    26.01    
 22.31    18.72    16.46    14.77    13.73    12.72    11.86    11.31    10.63    9.81     
 9.07     8.25     7.44     6.89     6.52     6.23     5.89     5.53     5.18     4.84     
 4.59     4.40     4.26     4.13     3.98     3.78     3.58     3.40     3.26     3.15     
 3.06     2.99     2.93     2.87     2.81     2.75     2.70     2.63     2.59     2.57     
 2.56     2.57     2.63     2.70     2.78     2.87     2.97     3.10     3.23     3.36     
 3.52     3.68     3.86     4.06     4.26     4.48     4.72     4.96     5.20     5.46     
 5.71     5.98     6.25     6.52     6.82     7.14     7.47     7.79     8.14     8.50     
 8.90     9.30     9.69     10.12    10.58    11.04    11.53    12.01    12.51    13.07    
 13.63    14.21    14.84    15.49    16.15    16.83    17.56    18.31    19.14    20.03    
 21.02    22.13    23.44    24.96    26.73    28.78    31.02    33.61    36.47    39.71    
 43.34    47.45    52.07    57.22    62.97    69.50    76.93    85.22    94.65    105.13   
 116.62   128.84   141.71   155.36   169.94   184.65   199.27   213.66   228.35   242.71   
 257.07   267.91   276.67   283.32   287.19   288.48   287.20   283.61   278.15   270.89   
 262.45   252.83   243.46   232.62   221.81   210.57   199.38   188.05   176.46   164.70   
 160.25   
328591.28 328324.20 324928.61 318284.70 308350.69 294735.76 261666.75 228597.73 195508.80 159780.48 
 125953.60 94816.59 67132.69 55347.26 34879.98 25311.25 15793.90 11685.47 6855.94  2060.22  
 1808.16  1513.50  1083.97  764.95   529.59   413.83   298.06   183.11   154.15   132.21   
 114.66   100.66   89.02    79.51    71.21    63.81    56.86    51.45    46.82    42.12    
 37.71    33.80    30.33    27.06    24.06    21.00    17.87    15.47    13.42    12.10    
 11.23    10.48    9.83     9.31     8.84     8.43     8.01     7.65     7.33     7.03     
 6.75     6.46     6.20     5.95     5.75     5.56     5.36     5.14     4.90     4.66     
 4.40     4.14     3.88     3.67     3.45     3.21     3.00     2.82     2.64     2.51     
 2.44     2.45     2.49     2.55     2.63     2.74     2.85     2.97     3.10     3.24     
 3.41     3.57     3.75     3.94     4.14     4.35     4.57     4.79     5.03     5.29     
 5.54     5.80     6.09     6.39     6.71     7.04     7.37     7.71     8.07     8.44     
 8.82     9.21     9.62     10.02    10.44    10.88    11.34    11.81    12.30    12.80    
 13.33    13.89    14.51    15.17    15.86    16.66    17.57    18.60    19.74    21.01    
 22.45    24.05    25.88    27.92    30.12    32.62    35.45    38.60    42.03    45.92    
 50.37    55.23    60.74    66.88    73.75    81.47    89.91    99.09    109.00   120.47   
 131.94   143.87   155.91   169.02   182.02   195.30   208.20   220.48   232.27   242.75   
 251.83   259.42   265.26   269.18   271.13   271.38   269.75   266.50   261.86   255.91   
 249.52   241.90   233.46   224.58   215.66   206.65   197.39   188.14   178.44   168.94   
 160.25   
328591.28 327049.74 321633.03 314109.26 303902.01 291872.15 277017.08 259430.61 239510.75 209170.98 
 173073.71 144014.00 121703.86 99219.53 76732.47 60607.51 41808.98 31925.16 25514.32 17616.01 
 12857.62 10328.35 7824.79  5321.23  4036.46  1621.85  1157.69  936.97   718.54   518.87   
 375.13   282.64   226.46   189.81   159.37   134.01   115.80   97.66    84.15    73.14    
 64.19    57.31    51.40    46.39    42.01    37.79    34.31    31.69    29.31    27.27    
 25.46    23.55    21.41    19.32    17.11    15.02    13.39    12.21    11.42    10.86    
 10.48    10.20    9.90     9.63     9.41     9.21     9.02     8.83     8.67     8.47     
 8.22     7.94     7.58     7.19     6.73     6.24     5.63     4.95     4.23     3.52     
 2.95     2.73     2.70     2.74     2.82     2.92     3.03     3.15     3.27     3.41     
 3.56     3.73     3.90     4.08     4.29     4.51     4.75     5.00     5.26     5.53     
 5.82     6.12     6.43     6.76     7.11     7.45     7.79     8.15     8.52     8.91     
 9.29     9.66     10.05    10.47    10.90    11.34    11.79    12.26    12.76    13.33    
 13.94    14.61    15.35    16.14    17.03    18.03    19.14    20.36    21.74    23.23    
 24.84    26.64    28.66    30.88    33.39    36.24    39.52    43.24    47.49    52.28    
 57.62    63.54    70.23    77.61    85.65    94.38    103.60   113.27   123.56   134.35   
 145.45   156.63   167.80   178.90   190.16   200.96   211.00   220.20   228.45   236.24   
 244.03   248.66   252.29   254.85   256.04   255.93   254.63   252.24   248.66   244.33   
 239.44   233.67   227.33   220.44   213.74   206.35   199.08   191.47   183.55   175.54   
 160.25   
328591.28 326078.43 320639.74 312752.60 302427.73 290816.21 277681.38 263211.18 246356.55 229485.53 
 210480.76 189692.60 167306.34 145001.93 122983.89 103213.65 85437.80 68925.26 54489.59 42072.08 
 34369.72 29355.92 25669.10 21979.47 17970.41 15353.31 13370.00 11607.65 9823.53  7669.09  
 6255.39  5156.57  4212.53  3509.54  2887.65  2267.83  1888.66  1570.19  1272.40  1033.97  
 837.65   660.41   519.96   418.63   338.41   269.13   200.10   159.65   128.37   104.89   
 87.97    75.01    64.66    56.98    50.03    44.76    40.71    36.98    34.26    32.01    
 30.19    28.42    27.10    25.85    24.79    23.59    22.12    20.65    19.50    18.72    
 18.35    18.23    18.14    18.02    17.87    17.63    17.27    16.55    15.00    12.68    
 9.42     5.46     2.42     2.30     2.36     2.43     2.52     2.60     2.69     2.79     
 2.91     3.04     3.18     3.35     3.52     3.71     3.91     4.13     4.37     4.62     
 4.89     5.16     5.45     5.75     6.07     6.40     6.75     7.11     7.47     7.85     
 8.25     8.66     9.06     9.47     9.88     10.32    10.81    11.32    11.84    12.39    
 13.00    13.69    14.44    15.28    16.21    17.23    18.33    19.57    20.92    22.40    
 23.98    25.80    27.87    30.14    32.72    35.71    39.31    43.36    47.84    53.03    
 58.93    65.36    72.51    80.19    88.47    97.38    106.52   116.06   126.22   136.39   
 146.71   156.60   166.45   176.47   185.81   195.12   203.83   212.05   219.93   226.97   
 233.31   239.03   243.79   247.72   250.64   252.56   253.34   253.33   251.74   249.37   
 246.22   242.23   237.27   231.45   225.36   218.75   211.52   203.97   196.18   188.25   
 160.25   
328591.28 324446.02 317785.72 308927.90 298010.26 286605.04 274079.36 260350.41 245136.32 229904.37 
 212956.33 194022.61 173454.59 151595.59 130127.11 109331.98 91381.02 76256.19 64394.90 54817.65 
 47020.00 40640.03 35622.50 31611.76 28256.71 25593.33 22935.35 20728.82 18602.96 16565.18 
 14629.38 12812.14 11225.29 9826.54  8668.52  7729.63  7011.24  6389.36  5873.95  5461.50  
 5094.01  4771.59  4510.06  4329.81  4143.57  3958.30  3751.49  3517.23  3263.15  2991.49  
 2755.61  2519.73  2284.30  2084.25  1898.17  1726.12  1563.43  1409.01  1272.74  1155.35  
 1046.11  944.03   850.11   761.90   678.94   603.02   533.17   470.15   413.00   363.16   
 319.68   279.13   244.62   210.21   183.48   160.99   141.92   125.47   110.09   97.26    
 85.31    73.63    60.70    8.45     3.01     2.26     1.82     1.64     1.49     1.41     
 1.32     1.23     1.22     1.23     1.23     1.25     1.27     1.29     1.32     1.35     
 1.38     1.42     1.45     1.48     1.52     1.56     1.62     1.66     1.71     1.77     
 1.83     1.90     1.96     2.02     2.09     2.15     2.24     2.33     2.41     2.52     
 2.64     2.76     2.89     3.04     3.21     3.40     3.60     3.82     4.07     4.34     
 4.65     5.00     5.39     5.84     6.38     6.95     7.62     8.40     9.27     10.20    
 11.32    12.50    13.79    15.21    16.74    18.37    20.05    21.80    23.60    25.48    
 27.41    29.34    31.35    33.40    35.51    37.69    40.02    42.51    45.15    47.90    
 50.76    53.80    57.08    60.64    64.47    68.68    73.34    78.92    84.80    91.69    
 99.51    108.11   117.48   127.50   137.96   148.58   159.28   169.84   180.08   189.35   
 160.25   
328591.28 324242.06 317186.31 308680.45 298575.98 287259.85 276220.87 264155.01 250890.80 235832.35 
 219687.49 201313.08 182166.09 161862.54 141271.95 120599.80 102575.68 84571.10 71363.16 61091.18 
 53257.65 47323.39 42530.88 38758.50 35490.04 32439.69 29831.17 27328.05 24814.92 22483.71 
 20150.31 17963.36 15955.96 14112.57 12508.31 11393.82 10283.35 9172.87  8455.74  7917.28  
 7472.84  7116.37  6792.43  6508.53  6259.92  6042.95  5829.86  5629.26  5438.00  5250.43  
 5047.36  4830.78  4603.24  4362.36  4116.53  3874.68  3641.70  3430.48  3240.34  3058.40  
 2877.34  2712.41  2556.78  2408.45  2267.83  2128.48  1991.55  1861.06  1732.64  1611.47  
 1495.99  1389.39  1283.15  1187.11  1091.18  995.24   912.01   833.51   758.43   692.80   
 633.01   578.46   529.35   486.64   447.62   415.37   386.21   359.97   340.98   321.06   
 302.12   284.67   269.99   255.82   243.07   231.23   219.03   207.51   198.16   188.04   
 178.92   170.50   162.73   155.53   148.42   141.40   134.96   129.50   123.72   117.94   
 112.71   107.87   102.61   97.48    92.34    87.58    83.41    78.95    74.94    70.17    
 65.96    61.93    57.78    53.17    48.79    44.42    39.96    33.57    27.13    20.36    
 14.91    11.35    9.50     7.96     6.28     5.16     5.28     5.76     6.47     7.30     
 8.22     9.25     10.37    11.59    12.96    14.40    15.92    17.52    19.21    20.97    
 22.75    24.54    26.34    28.19    30.04    31.84    33.75    35.71    37.67    39.67    
 41.76    43.95    46.23    48.70    51.29    54.31    57.83    61.98    67.01    73.45    
 80.77    89.41    99.26    110.00   121.49   133.62   145.87   158.47   170.70   182.54   
 160.25   
328591.28 324380.26 318097.11 309945.98 300524.93 290383.41 279327.29 267586.90 254663.05 238138.12 
 221583.70 202296.65 182827.89 163324.33 143535.23 123936.23 105420.78 88275.59 74332.59 63979.98 
 56823.89 51350.95 46898.33 43084.62 39652.06 36466.80 33537.34 30590.98 27873.84 25225.80 
 22579.31 20088.88 17863.38 15813.23 14008.54 12428.40 11096.05 10016.88 9174.17  8570.78  
 8115.75  7781.09  7501.99  7269.03  7051.31  6837.44  6647.16  6457.89  6286.92  6110.15  
 5948.97  5789.11  5608.00  5417.62  5207.07  4991.69  4772.22  4544.38  4318.68  4070.87  
 3844.98  3614.93  3405.01  3208.72  3017.35  2826.72  2642.59  2458.53  2281.00  2105.96  
 1942.22  1788.26  1647.27  1509.09  1382.04  1255.98  1142.68  1038.94  943.46   856.03   
 776.17   707.71   650.93   604.10   562.70   525.27   492.85   463.25   439.86   418.04   
 397.21   377.14   359.98   344.68   329.95   316.31   304.40   292.79   282.22   272.61   
 263.49   255.40   247.62   239.96   232.33   227.08   221.42   216.00   211.12   206.51   
 202.08   197.76   193.69   189.96   185.98   182.12   178.34   174.59   170.88   167.41   
 164.46   161.19   158.00   154.93   151.48   147.83   144.50   141.09   137.74   134.36   
 130.62   126.96   123.31   119.46   115.39   111.11   106.07   100.38   95.01    89.41    
 83.05    76.58    68.71    61.79    57.79    55.23    52.75    40.38    21.94    18.27    
 18.20    19.58    21.55    23.63    25.73    27.84    29.97    32.09    34.27    36.50    
 38.72    40.86    42.95    45.11    47.24    49.45    51.95    54.87    58.33    62.73    
 68.27    75.24    84.00    93.82    105.08   117.61   131.37   145.77   160.23   174.46   
 160.25   
328591.28 324142.98 317390.16 309037.89 300198.97 290434.08 279255.39 265380.07 247374.95 224831.68 
 200431.20 177436.33 156863.25 138167.33 121462.45 106938.70 92431.48 80721.99 70857.52 62970.32 
 56773.82 51578.88 46960.96 42592.68 38159.35 33887.37 29699.62 25677.56 21819.18 18273.82 
 15547.63 13606.11 12326.57 11609.41 10897.11 10184.81 9740.45  9327.05  8964.92  8624.97  
 8313.60  8017.30  7749.12  7493.60  7282.19  7075.96  6878.18  6706.89  6531.81  6344.28  
 6149.98  5953.90  5759.00  5586.10  5404.21  5207.84  5009.74  4810.83  4611.11  4399.77  
 4188.34  3969.90  3764.39  3561.42  3353.66  3150.66  2946.11  2742.34  2542.58  2344.05  
 2154.34  1987.13  1821.73  1661.90  1512.51  1372.81  1239.60  1136.91  1034.49  932.07   
 853.72   785.57   721.55   667.63   618.58   576.29   536.69   505.33   481.46   459.94   
 438.43   418.83   400.79   385.13   372.12   360.33   349.89   340.54   332.70   324.88   
 317.63   311.45   305.71   300.36   295.45   290.71   286.72   282.81   279.33   275.38   
 271.82   268.30   265.51   262.65   259.39   256.44   253.40   250.54   247.62   244.50   
 240.94   237.47   233.60   230.04   226.56   223.13   219.35   215.14   211.03   206.94   
 202.73   198.82   194.35   189.74   185.01   180.66   176.28   171.93   167.16   162.12   
 157.22   152.27   147.66   142.84   138.32   133.72   125.35   116.96   109.95   101.14   
 95.99    91.04    82.67    80.76    79.32    74.02    43.83    35.09    33.52    33.98    
 35.65    37.63    40.21    43.01    45.81    48.67    51.40    54.06    56.96    60.21    
