IESNA:LM-63-2002
[TEST] 1
[TESTLAB] AOK
[TESTDATE] 2022-04-26
[ISSUEDATE] 2022-04-27 16:11:01
[NEARFIELD] 
[LAMPPOSITION] 0,0
[OTHER] EVERFINE GO-2000A_V1 SYSTEM
[MANUFAC] AOK
[LUMCAT] A
[LUMINAIRE] AOK-600WiSF-HVY-S5-00-5070-30D-P
[LAMPCAT] B
[LAMP] 5050
[BALLAST] E
[BALLASTCAT] F
[OTHER] 
[OTHER] Gamma(deg)    Fz(lm)      Ft(lm)     %Lum    %Lamp
[OTHER]   0- 10     16237.50    16237.50    19.75    19.75
[OTHER]  10- 20     24009.56    40247.06    48.96    48.96
[OTHER]  20- 30     14365.31    54612.37    66.43    66.43
[OTHER]  30- 40      9649.73    64262.10    78.17    78.17
[OTHER]  40- 50      6301.91    70564.01    85.84    85.84
[OTHER]  50- 60      3847.69    74411.70    90.52    90.52
[OTHER]  60- 70      2478.75    76890.45    93.53    93.53
[OTHER]  70- 80      1569.20    78459.65    95.44    95.44
[OTHER]  80- 90      1026.71    79486.36    96.69    96.69
[OTHER]  90-100       787.50    80273.86    97.65    97.65
[OTHER] 100-110       617.00    80890.86    98.40    98.40
[OTHER] 110-120       475.37    81366.23    98.98    98.98
[OTHER] 120-130       347.12    81713.35    99.40    99.40
[OTHER] 130-140       227.22    81940.57    99.68    99.68
[OTHER] 140-150       134.99    82075.56    99.84    99.84
[OTHER] 150-160        75.91    82151.46    99.93    99.93
[OTHER] 160-170        39.86    82191.33    99.98    99.98
[OTHER] 170-180        14.05    82205.37   100.00   100.00
[OTHER] 
TILT=NONE
1 82205 1 181 25 1 2 0.150 0.200 0.000
1.000 1 594.286
0.0    1.0    2.0    3.0    4.0    5.0    6.0    7.0    8.0    9.0    
 10.0   11.0   12.0   13.0   14.0   15.0   16.0   17.0   18.0   19.0   
 20.0   21.0   22.0   23.0   24.0   25.0   26.0   27.0   28.0   29.0   
 30.0   31.0   32.0   33.0   34.0   35.0   36.0   37.0   38.0   39.0   
 40.0   41.0   42.0   43.0   44.0   45.0   46.0   47.0   48.0   49.0   
 50.0   51.0   52.0   53.0   54.0   55.0   56.0   57.0   58.0   59.0   
 60.0   61.0   62.0   63.0   64.0   65.0   66.0   67.0   68.0   69.0   
 70.0   71.0   72.0   73.0   74.0   75.0   76.0   77.0   78.0   79.0   
 80.0   81.0   82.0   83.0   84.0   85.0   86.0   87.0   88.0   89.0   
 90.0   91.0   92.0   93.0   94.0   95.0   96.0   97.0   98.0   99.0   
 100.0  101.0  102.0  103.0  104.0  105.0  106.0  107.0  108.0  109.0  
 110.0  111.0  112.0  113.0  114.0  115.0  116.0  117.0  118.0  119.0  
 120.0  121.0  122.0  123.0  124.0  125.0  126.0  127.0  128.0  129.0  
 130.0  131.0  132.0  133.0  134.0  135.0  136.0  137.0  138.0  139.0  
 140.0  141.0  142.0  143.0  144.0  145.0  146.0  147.0  148.0  149.0  
 150.0  151.0  152.0  153.0  154.0  155.0  156.0  157.0  158.0  159.0  
 160.0  161.0  162.0  163.0  164.0  165.0  166.0  167.0  168.0  169.0  
 170.0  171.0  172.0  173.0  174.0  175.0  176.0  177.0  178.0  179.0  
 180.0  
0.0    15.0   30.0   45.0   60.0   75.0   90.0   105.0  120.0  135.0  
 150.0  165.0  180.0  195.0  210.0  225.0  240.0  255.0  270.0  285.0  
 300.0  315.0  330.0  345.0  360.0  
196120.94 195968.82 196027.16 190447.52 164231.88 147462.53 130110.54 102224.71 90780.23 62309.81 
 45343.14 29514.61 14926.79 352.69   114.17   78.15    42.63    30.44    22.17    19.04    
 17.18    16.14    15.14    13.97    12.94    11.66    10.69    9.92     9.30     8.76     
 8.19     7.36     6.87     6.71     6.70     6.69     6.62     6.54     6.53     6.53     
 6.47     6.36     6.29     6.23     6.19     6.17     6.12     6.10     6.10     6.09     
 6.10     6.11     6.11     6.08     6.03     6.00     5.98     5.96     5.96     5.95     
 5.95     5.94     5.89     5.85     5.80     5.76     5.73     5.69     5.64     5.59     
 5.57     5.55     5.53     5.52     5.52     5.51     5.51     5.51     5.50     5.52     
 5.55     5.62     5.70     5.79     5.90     6.01     6.14     6.28     6.44     6.59     
 6.77     6.96     7.16     7.39     7.63     7.89     8.15     8.43     8.73     9.03     
 9.35     9.68     10.06    10.47    10.90    11.36    11.84    12.34    12.91    13.51    
 14.17    14.88    15.64    16.43    17.28    18.18    19.13    20.10    21.14    22.24    
 23.40    24.65    25.96    27.35    28.81    30.30    32.01    33.85    35.79    37.85    
 39.96    42.24    44.70    47.33    50.11    53.14    56.35    59.85    63.62    67.73    
 72.25    77.34    83.01    89.20    95.88    103.04   110.64   118.89   127.59   136.41   
 145.55   154.61   163.52   172.39   180.91   188.99   196.68   204.04   210.86   217.41   
 223.44   228.89   233.34   236.50   238.26   238.51   237.34   234.66   230.92   225.91   
 220.24   213.98   207.42   200.77   194.03   186.85   179.30   171.16   162.08   152.12   
 140.26   
196120.94 195547.23 195526.17 195247.76 178832.06 159519.79 137821.37 119420.94 93636.97 82427.93 
 57051.02 40523.32 32990.29 25305.31 462.53   356.96   251.39   146.35   95.88    66.92    
 48.69    36.25    28.00    22.96    19.14    16.74    14.86    13.46    12.37    11.87    
 11.37    10.87    10.14    8.91     8.32     8.11     8.12     7.84     7.53     7.21     
 6.99     6.86     6.77     6.71     6.64     6.59     6.51     6.43     6.31     6.26     
 6.25     6.19     6.07     6.02     5.99     5.98     5.92     5.84     5.77     5.71     
 5.64     5.60     5.56     5.53     5.48     5.41     5.35     5.31     5.27     5.22     
 5.17     5.13     5.10     5.07     5.06     5.03     5.01     5.01     5.01     5.01     
 5.02     5.04     5.08     5.15     5.24     5.33     5.44     5.56     5.69     5.84     
 6.01     6.19     6.38     6.59     6.82     7.07     7.33     7.59     7.88     8.18     
 8.48     8.81     9.15     9.53     9.93     10.35    10.83    11.33    11.87    12.44    
 13.03    13.68    14.38    15.14    15.92    16.78    17.67    18.58    19.59    20.62    
 21.74    22.95    24.23    25.57    26.99    28.52    30.16    31.92    33.79    35.79    
 37.88    40.07    42.45    44.97    47.64    50.47    53.58    56.91    60.42    64.33    
 68.72    73.47    78.72    84.48    90.78    97.58    104.88   112.64   120.77   129.47   
 138.29   147.26   155.94   164.78   173.32   181.56   189.54   197.10   204.42   211.36   
 217.90   223.85   228.78   232.66   235.07   236.11   235.85   234.31   231.68   227.89   
 223.39   218.43   213.03   207.38   201.46   195.04   187.83   179.90   170.83   161.07   
 140.26   
196120.94 194807.43 194654.87 194229.41 192948.80 170914.80 154700.44 134460.76 117675.45 93512.88 
 86230.95 62249.00 47729.09 29130.05 15671.77 11805.17 8037.96  4270.75  503.55   376.89   
 310.83   244.19   182.85   153.25   129.63   108.86   88.12    69.45    58.72    51.04    
 44.45    38.23    33.24    29.92    26.88    23.58    19.51    17.33    16.32    15.26    
 14.18    13.23    12.62    12.00    11.38    10.81    10.32    9.84     9.40     9.01     
 8.64     8.23     7.84     7.48     7.10     6.80     6.67     6.57     6.49     6.41     
 6.33     6.26     6.18     6.07     5.96     5.88     5.80     5.66     5.58     5.52     
 5.46     5.40     5.34     5.28     5.21     5.15     5.09     5.03     4.97     4.92     
 4.89     4.88     4.88     4.95     5.03     5.13     5.24     5.36     5.49     5.62     
 5.78     5.95     6.12     6.33     6.54     6.77     7.01     7.26     7.53     7.81     
 8.10     8.40     8.72     9.08     9.45     9.83     10.25    10.70    11.19    11.69    
 12.24    12.86    13.52    14.20    14.96    15.74    16.60    17.49    18.46    19.45    
 20.55    21.72    23.00    24.36    25.74    27.20    28.83    30.52    32.29    34.15    
 36.12    38.21    40.48    42.85    45.41    48.05    51.03    54.27    57.75    61.50    
 65.58    70.02    74.82    80.34    86.40    92.90    99.80    107.00   114.48   122.43   
 130.98   139.60   148.21   156.67   164.92   172.93   181.22   189.41   197.19   204.38   
 210.85   216.75   221.56   225.33   228.14   229.86   230.50   230.08   228.62   226.32   
 223.29   219.68   215.39   210.71   205.39   199.40   192.74   185.56   177.61   168.94   
 140.26   
196120.94 193750.95 193178.53 192610.80 191684.01 190195.31 179699.68 161539.83 147768.21 128988.03 
 114851.32 94351.09 77061.02 68555.54 49480.89 39284.46 28767.88 18296.50 12466.56 6636.61  
 849.58   645.90   481.23   380.42   303.83   251.91   200.10   159.51   129.51   104.49   
 88.56    76.02    65.27    55.75    48.13    41.55    37.44    33.86    30.87    28.27    
 26.07    23.38    20.21    17.18    15.80    15.09    14.22    13.53    12.88    12.52    
 12.05    11.32    10.87    10.34    10.00    9.72     9.50     9.17     8.87     8.67     
 8.19     7.93     7.81     7.71     7.62     7.53     7.45     7.27     7.11     6.90     
 6.78     6.28     6.11     5.97     5.83     5.68     5.50     5.35     5.19     5.04     
 4.90     4.79     4.72     4.72     4.75     4.82     4.90     5.01     5.12     5.24     
 5.39     5.53     5.69     5.86     6.05     6.25     6.47     6.71     6.96     7.22     
 7.48     7.76     8.04     8.36     8.69     9.04     9.42     9.82     10.31    10.80    
 11.32    11.87    12.48    13.14    13.83    14.59    15.40    16.22    17.12    18.12    
 19.17    20.28    21.48    22.68    23.98    25.37    26.87    28.44    30.08    31.83    
 33.67    35.68    37.80    40.01    42.35    44.91    47.67    50.61    53.71    57.12    
 60.98    65.04    69.50    74.37    79.75    85.67    91.90    98.67    105.74   113.32   
 121.12   129.27   137.40   145.87   154.39   162.86   171.16   178.95   186.71   193.71   
 200.04   205.83   210.78   215.02   218.33   220.88   222.51   223.37   223.37   222.68   
 221.19   218.99   216.09   212.48   208.27   203.43   197.97   191.90   185.13   177.95   
 140.26   
196120.94 194849.68 192747.43 191917.87 190670.66 189011.78 186389.89 182210.46 176970.87 164457.60 
 147355.22 130145.44 119061.55 102572.41 86971.92 75568.23 59448.83 46174.44 39356.70 30650.80 
 21290.67 17278.75 12828.42 9972.50  7134.55  3326.67  1174.58  879.42   603.07   436.98   
 328.30   255.63   210.22   173.30   148.82   128.11   111.95   95.84    83.49    73.50    
 66.94    60.61    54.58    48.97    44.72    40.77    37.59    34.44    32.12    30.06    
 28.00    25.20    22.43    19.53    17.88    17.30    16.52    15.09    14.53    13.93    
 13.30    12.74    12.00    11.64    11.35    10.75    10.35    9.77     9.10     8.86     
 8.63     8.41     8.17     7.89     7.60     7.34     6.88     6.60     6.29     5.98     
 5.69     5.42     5.11     4.85     4.75     4.74     4.79     4.88     4.99     5.10     
 5.23     5.37     5.49     5.66     5.82     6.00     6.22     6.43     6.65     6.88     
 7.13     7.39     7.67     7.96     8.29     8.65     9.02     9.42     9.83     10.29    
 10.77    11.30    11.86    12.47    13.14    13.84    14.58    15.38    16.24    17.16    
 18.09    19.08    20.17    21.35    22.56    23.82    25.18    26.64    28.19    29.83    
 31.56    33.38    35.31    37.35    39.62    42.07    44.70    47.47    50.50    53.76    
 57.28    61.25    65.71    70.53    75.75    81.33    87.31    93.74    100.76   108.08   
 115.57   123.22   131.18   139.24   147.29   155.26   163.15   170.77   178.03   184.99   
 191.36   197.34   202.74   207.50   211.65   215.12   217.94   220.03   221.32   221.88   
 221.63   220.49   218.55   215.95   212.84   209.06   204.70   199.81   194.40   188.41   
 140.26   
196120.94 196016.30 195218.00 193911.28 191791.47 188939.37 185614.28 181118.15 175687.26 169814.41 
 162439.65 154461.58 145533.68 135464.67 124774.19 113766.25 102291.41 90682.05 78114.35 65556.16 
 54424.41 45147.59 38972.72 34050.36 29466.28 25502.32 21550.80 18960.50 16988.52 14719.97 
 12100.61 9925.17  8631.01  7429.33  6461.14  5344.47  4097.79  3500.92  3048.15  2518.07  
 1990.35  1702.18  1435.03  1053.96  761.89   569.61   438.62   345.13   286.28   227.43   
 168.90   143.55   122.59   107.46   93.80    84.14    76.03    68.50    61.95    56.44    
 51.31    45.91    42.15    38.74    35.31    32.76    30.07    27.05    24.63    22.44    
 21.64    20.58    19.73    18.71    17.41    16.45    15.12    13.80    12.78    11.72    
 10.64    9.44     8.19     6.85     5.43     4.29     3.95     3.97     4.03     4.10     
 4.18     4.27     4.38     4.52     4.66     4.80     4.97     5.14     5.33     5.53     
 5.74     5.96     6.19     6.45     6.73     7.02     7.32     7.66     8.01     8.40     
 8.81     9.27     9.76     10.28    10.83    11.42    12.04    12.70    13.40    14.17    
 15.00    15.88    16.86    17.84    18.87    19.95    21.13    22.39    23.73    25.18    
 26.69    28.30    30.03    31.89    33.86    36.01    38.34    40.88    43.58    46.55    
 49.96    53.64    57.66    62.11    66.91    72.27    78.01    84.21    90.70    97.75    
 105.06   112.60   120.18   128.13   136.07   143.99   151.95   159.59   167.36   174.82   
 182.03   188.87   195.30   201.40   206.89   211.88   216.19   219.86   222.69   224.71   
 225.89   226.19   225.61   224.15   221.99   219.05   215.41   211.21   206.50   201.41   
 140.26   
196120.94 196487.30 196340.78 195843.18 194775.17 193114.09 189973.37 185470.19 179906.72 173902.43 
 166173.15 157960.75 148905.70 138732.81 127704.56 116817.13 105279.86 94028.35 83120.79 73128.77 
 64016.64 56209.80 49565.68 43946.73 39656.69 36202.55 33270.74 30498.87 28013.70 25936.76 
 23859.81 21785.79 19995.61 18418.17 16906.95 15674.45 14621.48 13415.58 12494.30 11624.30 
 10766.23 9941.69  9076.67  8280.01  7562.75  6915.94  6285.00  5725.87  5300.49  4812.31  
 4379.58  3942.54  3603.48  3272.34  3005.87  2780.63  2555.39  2330.37  2125.38  1935.80  
 1763.48  1617.42  1485.25  1374.60  1271.54  1171.14  1072.56  976.46   880.40   792.02   
 710.39   639.88   577.16   516.46   456.30   402.44   349.30   301.32   264.36   227.41   
 190.54   162.26   136.96   112.43   91.17    73.10    55.65    37.81    24.95    12.81    
 5.15     3.64     3.17     2.63     2.48     2.42     2.43     2.44     2.45     2.47     
 2.49     2.50     2.52     2.54     2.57     2.60     2.63     2.67     2.72     2.78     
 2.84     2.90     2.97     3.04     3.11     3.19     3.27     3.34     3.42     3.52     
 3.62     3.73     3.83     3.90     4.01     4.15     4.30     4.48     4.68     4.89     
 5.15     5.41     5.71     6.04     6.41     6.80     7.24     7.78     8.33     8.93     
 9.60     10.32    11.11    11.99    12.95    13.99    15.11    16.35    17.63    18.99    
 20.43    21.94    23.54    25.24    27.03    28.90    30.91    33.08    35.38    37.79    
 40.36    43.05    45.83    48.79    51.88    55.14    58.59    62.25    66.18    70.50    
 75.10    80.18    85.78    91.88    98.39    105.27   112.70   120.55   128.68   136.75   
 140.26   
196120.94 196523.61 196570.17 196377.35 195725.27 195217.03 193386.58 190051.63 185517.54 179909.35 
 173188.75 166056.61 157541.98 148196.05 137676.67 126564.51 115253.95 104343.91 93768.43 83794.39 
 74318.11 66208.86 59336.77 53810.90 49285.44 45627.39 42453.22 39676.77 37088.46 34576.76 
 32313.74 30249.91 28282.40 26575.69 24918.52 23435.14 22177.86 20819.87 19685.01 18682.49 
 17567.18 16608.17 15564.06 14617.58 13632.61 12753.65 11836.21 10984.44 10133.20 9432.85  
 8702.44  8047.60  7447.35  6911.07  6414.10  5988.95  5653.88  5321.18  5022.45  4754.77  
 4502.52  4282.57  4073.82  3880.74  3680.64  3489.64  3317.09  3146.70  2977.52  2806.36  
 2647.57  2498.87  2359.43  2226.05  2099.51  1979.03  1861.00  1747.77  1645.77  1552.66  
 1463.22  1382.59  1306.83  1233.71  1176.61  1119.66  1062.72  1023.27  986.30   958.94   
 933.39   903.59   883.56   869.55   849.13   825.97   800.97   774.40   755.55   728.35   
 698.03   676.44   649.04   623.57   600.23   574.83   549.36   529.96   504.26   480.61   
 459.64   436.03   417.94   397.54   377.20   358.11   340.62   323.67   302.72   286.28   
 269.76   255.69   237.39   220.16   201.87   186.28   171.53   154.72   140.99   126.73   
 111.59   96.44    79.81    61.61    46.14    33.59    23.02    16.07    11.56    8.41     
 7.16     7.35     7.99     8.75     9.60     10.55    11.58    12.65    13.77    14.97    
 16.22    17.50    18.80    20.15    21.61    23.13    24.72    26.40    28.21    30.07    
 31.95    34.05    36.28    38.66    41.21    43.90    46.82    50.03    53.55    57.41    
 61.79    66.61    72.12    78.15    84.80    92.17    100.02   108.54   117.32   126.44   
 140.26   
196120.94 196571.06 197035.52 199069.29 200587.05 200773.20 199890.03 197822.02 194466.70 189727.53 
 183985.80 177388.95 169718.75 160846.83 150923.95 140376.77 129649.60 119008.95 108367.24 97955.46 
 88044.83 79380.36 72231.00 66312.64 61247.70 57087.96 53212.79 49759.71 46699.60 43596.57 
 40833.41 38260.15 35713.37 33433.35 31398.71 29460.20 27660.14 25914.66 24453.81 22994.58 
 21665.29 20320.98 19143.85 18093.32 16958.98 15980.72 14957.05 14048.16 13121.38 12234.48 
 11379.46 10584.63 9787.37  9081.15  8394.53  7780.14  7303.65  6832.66  6425.65  6061.18  
 5748.92  5463.50  5219.90  4969.60  4695.34  4461.65  4241.62  4028.18  3833.12  3638.21  
 3457.24  3271.98  3095.88  2918.27  2747.71  2577.15  2406.87  2263.02  2145.73  2030.64  
 1912.44  1807.29  1708.34  1625.52  1553.80  1484.39  1427.34  1376.63  1341.35  1312.34  
 1274.42  1244.35  1219.92  1195.91  1170.80  1147.57  1123.31  1099.34  1077.50  1052.96  
 1027.42  1007.69  981.38   962.33   939.09   921.79   901.17   879.13   858.09   840.31   
 822.20   802.56   783.71   759.40   741.91   723.39   705.07   686.21   667.77   649.10   
 629.30   610.79   593.17   574.58   558.01   537.11   517.78   499.60   481.55   463.12   
 445.09   427.87   405.54   385.42   366.37   346.60   324.01   303.14   282.34   260.33   
 237.98   215.65   195.57   177.77   161.63   143.69   128.27   112.66   99.45    86.41    
 55.47    27.19    22.41    18.47    17.08    18.40    19.95    21.58    23.28    25.09    
 27.00    29.00    30.99    32.99    35.09    37.36    39.79    42.56    45.68    49.23    
 53.08    57.55    62.67    68.44    74.90    82.15    90.29    99.13    108.56   118.40   
 140.26   
196120.94 196638.55 199550.72 202177.03 203893.24 204826.92 204713.40 203592.73 201556.38 198375.69 
 194175.18 188896.59 182606.74 175013.07 165209.63 154572.37 143526.91 131799.85 120046.28 107936.43 
 97057.97 87501.08 80094.00 73675.76 68549.19 63884.84 60012.78 56248.22 52383.23 48825.75 
 45571.94 42689.01 39666.98 37150.45 34935.36 32584.16 30806.31 28973.62 27271.95 25756.44 
 24266.52 22749.14 21156.31 19752.77 18426.16 17191.30 16091.89 14926.24 14045.37 13131.06 
 12242.69 11534.25 10827.57 10120.90 9516.71  8958.79  8449.05  7996.33  7575.41  7225.45  
 6868.01  6518.29  6192.94  5868.22  5540.31  5242.85  4982.99  4742.33  4502.24  4249.30  
 4017.54  3809.26  3608.13  3414.52  3233.43  3060.87  2900.83  2741.71  2583.39  2448.77  
 2325.60  2218.58  2114.51  2023.56  1943.69  1870.35  1818.32  1771.71  1732.38  1677.45  
 1632.02  1599.53  1566.73  1537.96  1509.21  1477.74  1446.96  1422.60  1399.92  1376.04  
 1345.73  1321.79  1295.09  1267.57  1243.65  1215.74  1191.03  1166.34  1142.83  1122.79  
 1100.54  1082.49  1063.07  1041.46  1018.20  1001.41  983.03   965.24   944.52   928.57   
 910.02   894.43   875.03   859.17   839.93   819.85   801.09   781.35   760.24   736.51   
 711.07   689.41   666.23   642.78   619.25   594.80   568.66   543.54   519.39   498.44   
 475.37   450.93   429.28   404.73   383.42   359.99   337.84   314.96   286.32   257.86   
 236.62   215.06   194.95   174.25   155.92   134.42   113.20   92.00    42.25    33.45    
 31.22    29.09    28.92    30.87    33.47    36.23    39.10    41.88    44.72    47.78    
