IESNA:LM-63-2002
[TEST] 1
[TESTLAB] AOK
[TESTDATE] 2022-07-02
[ISSUEDATE] 2022-07-02 16:24:03
[NEARFIELD] 
[LAMPPOSITION] 0,0
[OTHER] EVERFINE GO-2000A_V1 SYSTEM
[MANUFAC] AOK
[LUMCAT] A
[LUMINAIRE] AOK-800WiSF-NV-S35-00-5070-2030D-P
[LAMPCAT] B
[LAMP] 3535
[BALLAST] E
[BALLASTCAT] F
[OTHER] 
[OTHER] Gamma(deg)    Fz(lm)      Ft(lm)     %Lum    %Lamp
[OTHER]   0- 10     30916.24    30916.24    30.96    30.96
[OTHER]  10- 20     35745.36    66661.61    66.76    66.76
[OTHER]  20- 30     14975.26    81636.86    81.76    81.76
[OTHER]  30- 40      6590.24    88227.10    88.36    88.36
[OTHER]  40- 50      3961.15    92188.26    92.33    92.33
[OTHER]  50- 60      3026.46    95214.72    95.36    95.36
[OTHER]  60- 70      2053.50    97268.21    97.42    97.42
[OTHER]  70- 80      1111.56    98379.77    98.53    98.53
[OTHER]  80- 90       518.23    98898.00    99.05    99.05
[OTHER]  90-100       281.40    99179.40    99.33    99.33
[OTHER] 100-110       188.74    99368.14    99.52    99.52
[OTHER] 110-120       137.70    99505.84    99.66    99.66
[OTHER] 120-130        96.72    99602.56    99.75    99.75
[OTHER] 130-140        63.38    99665.94    99.82    99.82
[OTHER] 140-150        47.37    99713.31    99.87    99.87
[OTHER] 150-160        55.34    99768.65    99.92    99.92
[OTHER] 160-170        57.16    99825.81    99.98    99.98
[OTHER] 170-180        21.38    99847.19   100.00   100.00
[OTHER] 
TILT=NONE
1 99847 1 181 25 1 2 0.150 0.200 0.000
1.000 1 751.837
0.0    1.0    2.0    3.0    4.0    5.0    6.0    7.0    8.0    9.0    
 10.0   11.0   12.0   13.0   14.0   15.0   16.0   17.0   18.0   19.0   
 20.0   21.0   22.0   23.0   24.0   25.0   26.0   27.0   28.0   29.0   
 30.0   31.0   32.0   33.0   34.0   35.0   36.0   37.0   38.0   39.0   
 40.0   41.0   42.0   43.0   44.0   45.0   46.0   47.0   48.0   49.0   
 50.0   51.0   52.0   53.0   54.0   55.0   56.0   57.0   58.0   59.0   
 60.0   61.0   62.0   63.0   64.0   65.0   66.0   67.0   68.0   69.0   
 70.0   71.0   72.0   73.0   74.0   75.0   76.0   77.0   78.0   79.0   
 80.0   81.0   82.0   83.0   84.0   85.0   86.0   87.0   88.0   89.0   
 90.0   91.0   92.0   93.0   94.0   95.0   96.0   97.0   98.0   99.0   
 100.0  101.0  102.0  103.0  104.0  105.0  106.0  107.0  108.0  109.0  
 110.0  111.0  112.0  113.0  114.0  115.0  116.0  117.0  118.0  119.0  
 120.0  121.0  122.0  123.0  124.0  125.0  126.0  127.0  128.0  129.0  
 130.0  131.0  132.0  133.0  134.0  135.0  136.0  137.0  138.0  139.0  
 140.0  141.0  142.0  143.0  144.0  145.0  146.0  147.0  148.0  149.0  
 150.0  151.0  152.0  153.0  154.0  155.0  156.0  157.0  158.0  159.0  
 160.0  161.0  162.0  163.0  164.0  165.0  166.0  167.0  168.0  169.0  
 170.0  171.0  172.0  173.0  174.0  175.0  176.0  177.0  178.0  179.0  
 180.0  
0.0    15.0   30.0   45.0   60.0   75.0   90.0   105.0  120.0  135.0  
 150.0  165.0  180.0  195.0  210.0  225.0  240.0  255.0  270.0  285.0  
 300.0  315.0  330.0  345.0  360.0  
421318.31 421419.99 417196.82 407676.09 369862.35 325713.90 286703.80 235502.30 190061.95 142919.08 
 113375.98 84038.50 54701.03 47032.25 41556.87 37392.75 34099.62 26676.32 22354.69 17383.11 
 11638.74 7623.77  3629.20  1628.62  1086.63  560.41   34.19    21.63    17.94    16.68    
 15.85    14.40    13.42    12.49    11.61    10.44    9.53     8.73     8.26     8.16     
 8.01     7.84     7.66     7.46     6.94     6.59     6.36     5.96     5.53     5.35     
 5.03     4.79     4.61     4.51     4.37     4.27     4.11     4.04     4.00     3.98     
 3.96     3.94     3.91     3.90     3.90     3.90     3.88     3.87     3.86     3.84     
 3.82     3.79     3.76     3.73     3.71     3.67     3.65     3.63     3.61     3.58     
 3.58     3.58     3.57     3.57     3.58     3.62     3.64     3.69     3.77     3.85     
 3.94     4.06     4.18     4.33     4.48     4.64     4.81     5.00     5.19     5.40     
 5.60     5.81     6.04     6.28     6.55     6.82     7.09     7.37     7.66     7.96     
 8.28     8.61     8.95     9.31     9.67     10.07    10.47    10.90    11.35    11.81    
 12.30    12.79    13.31    13.85    14.42    15.03    15.67    16.35    17.09    17.87    
 18.74    19.69    20.73    21.93    23.34    24.97    27.01    29.41    32.17    35.33    
 38.82    42.66    46.94    51.79    57.11    62.93    69.28    76.41    84.54    94.49    
 106.30   119.63   134.42   150.30   167.13   185.15   205.43   225.81   245.93   266.05   
 284.69   303.23   320.05   334.48   346.78   355.53   361.00   363.13   361.87   357.59   
 350.92   342.84   332.98   322.14   310.23   297.23   283.01   267.75   251.57   233.66   
 214.94   
421318.31 422280.00 418720.42 410562.44 389141.51 339852.78 302291.15 256515.55 210732.82 164050.88 
 124212.27 92963.25 61463.95 50012.87 43228.64 38112.19 34269.30 29410.70 24552.10 19699.14 
 15597.08 10381.86 6135.87  4243.92  2351.97  475.31   311.47   149.04   136.26   96.06    
 75.34    87.46    58.75    34.34    24.95    20.55    18.17    16.61    15.62    14.67    
 14.16    13.38    12.44    11.61    10.80    9.96     9.04     7.98     7.26     6.74     
 6.27     5.97     5.76     5.50     5.24     5.02     5.09     5.30     5.34     5.32     
 5.20     5.06     4.90     4.75     4.61     4.48     4.36     4.21     4.07     3.95     
 3.83     3.73     3.68     3.62     3.56     3.49     3.42     3.35     3.29     3.22     
 3.19     3.19     3.20     3.23     3.27     3.31     3.35     3.41     3.49     3.58     
 3.69     3.82     3.96     4.11     4.27     4.45     4.62     4.81     5.01     5.23     
 5.46     5.68     5.92     6.18     6.45     6.73     7.01     7.31     7.60     7.91     
 8.22     8.55     8.91     9.26     9.62     10.00    10.42    10.85    11.28    11.74    
 12.23    12.75    13.29    13.83    14.39    14.98    15.62    16.29    17.02    17.79    
 18.62    19.57    20.66    21.92    23.44    25.25    27.49    30.10    32.96    36.30    
 40.13    44.26    48.75    53.67    59.04    65.20    72.00    79.66    88.37    98.60    
 110.03   123.93   137.85   153.96   171.19   189.13   208.24   227.09   246.59   265.43   
 283.83   301.18   317.35   331.54   342.16   350.18   354.91   356.24   354.43   349.79   
 343.14   334.58   325.15   314.41   302.92   290.26   276.38   261.62   246.04   229.49   
 214.94   
421318.31 422171.41 418968.47 412073.34 401132.88 367309.23 323900.85 286826.80 244091.24 200414.39 
 160055.03 124212.44 97220.27 70326.38 52055.65 44341.09 38705.44 34003.94 30176.42 26842.35 
 20150.25 16608.44 12593.28 9663.29  6745.56  4069.39  2258.48  1040.64  712.76   396.20   
 235.00   192.29   159.66   132.61   105.61   78.62    63.00    48.56    41.38    35.60    
 31.97    28.29    25.87    23.60    21.57    19.16    17.32    15.99    14.57    12.88    
 10.64    9.91     9.26     8.58     7.81     7.32     7.22     7.20     7.11     6.88     
 6.56     6.25     6.03     5.84     5.67     5.52     5.38     5.22     5.08     4.94     
 4.75     4.57     4.40     4.23     4.06     3.87     3.71     3.55     3.42     3.29     
 3.19     3.12     3.10     3.11     3.17     3.24     3.32     3.42     3.52     3.63     
 3.77     3.92     4.07     4.22     4.40     4.59     4.79     5.01     5.24     5.48     
 5.72     5.98     6.24     6.51     6.79     7.08     7.38     7.69     8.01     8.35     
 8.69     9.05     9.43     9.80     10.21    10.62    11.03    11.47    11.91    12.38    
 12.85    13.35    13.85    14.41    14.99    15.63    16.33    17.08    17.93    18.90    
 20.01    21.36    22.89    24.72    26.79    29.15    31.86    34.93    38.26    41.97    
 45.89    50.37    55.43    60.93    67.00    73.95    81.79    90.51    100.16   111.33   
 123.73   136.97   151.03   166.01   182.72   199.84   216.90   234.65   252.40   270.02   
 286.73   301.48   314.19   325.61   334.04   339.58   342.67   343.10   340.90   336.55   
 330.67   323.47   315.26   305.73   294.82   282.90   269.75   255.69   241.48   226.33   
 214.94   
421318.31 422292.98 419900.72 414685.35 405165.27 390228.34 361728.92 324423.17 292639.49 254568.32 
 216497.15 178523.95 152373.16 119123.16 98881.91 77959.21 60723.00 45161.04 37969.28 32619.78 
 27990.59 24722.19 21458.87 18813.86 15802.28 11904.34 9086.84  7299.19  5325.77  3844.29  
 2802.24  1762.61  1040.61  620.26   431.75   337.08   242.40   148.33   120.63   99.43    
 80.79    68.23    59.17    50.20    43.73    37.98    33.85    30.12    26.85    24.39    
 22.55    20.88    19.54    17.97    15.65    11.75    10.19    9.92     9.62     9.32     
 8.91     8.54     8.21     7.92     7.65     7.36     7.10     6.86     6.63     6.39     
 6.14     5.90     5.65     5.40     5.11     4.80     4.48     4.14     3.84     3.56     
 3.32     3.10     2.98     2.99     3.05     3.14     3.23     3.34     3.45     3.57     
 3.73     3.88     4.04     4.22     4.41     4.62     4.84     5.07     5.31     5.56     
 5.82     6.08     6.37     6.68     6.99     7.32     7.63     7.97     8.31     8.65     
 9.00     9.35     9.72     10.09    10.49    10.90    11.34    11.80    12.28    12.77    
 13.29    13.84    14.46    15.12    15.83    16.64    17.61    18.65    19.83    21.15    
 22.66    24.31    26.16    28.25    30.49    33.03    35.92    39.16    42.59    46.56    
 51.12    56.24    61.90    68.30    75.40    83.51    92.40    102.10   112.71   125.09   
 137.48   150.96   164.45   179.34   194.53   209.85   225.56   240.70   255.83   269.88   
 283.08   294.67   304.93   313.32   319.64   324.04   326.39   326.85   325.53   322.54   
 318.06   312.14   304.78   296.10   286.33   275.38   263.43   251.24   238.33   225.10   
 214.94   
421318.31 421261.88 418839.64 413572.84 403033.91 387279.71 374243.78 358706.37 338300.91 304949.28 
 269500.48 240495.75 211326.74 183742.79 157486.39 130529.12 110281.12 90101.45 69921.79 55481.17 
 43226.52 35443.83 29394.09 23728.43 21104.86 18494.82 16575.00 14675.52 12992.73 11446.59 
 9902.13  8357.67  6893.81  5354.55  4267.80  3293.51  2543.19  2010.47  1599.42  1251.89  
 962.28   673.39   466.92   332.90   234.91   179.12   144.66   122.72   100.92   79.12    
 67.39    58.94    52.82    46.74    41.29    37.65    34.49    31.55    29.15    27.05    
 24.71    22.49    19.52    14.30    12.64    11.77    11.24    10.64    10.04    9.53     
 9.08     8.62     8.25     7.86     7.42     7.02     6.58     6.09     5.55     4.98     
 4.43     3.94     3.52     3.36     3.35     3.44     3.54     3.64     3.76     3.89     
 4.04     4.20     4.36     4.56     4.76     4.97     5.21     5.44     5.69     5.96     
 6.24     6.52     6.83     7.14     7.47     7.79     8.14     8.49     8.86     9.23     
 9.60     9.99     10.41    10.83    11.28    11.74    12.22    12.72    13.23    13.81    
 14.44    15.12    15.90    16.72    17.63    18.60    19.69    20.93    22.28    23.73    
 25.29    27.09    29.11    31.35    33.87    36.70    39.96    43.78    48.12    53.00    
 58.51    64.60    71.55    79.44    87.96    97.15    107.09   117.87   129.47   141.43   
 153.92   166.81   180.04   193.53   206.99   220.13   233.03   245.93   258.83   269.62   
 279.47   288.24   295.63   301.85   306.82   310.12   312.02   312.38   311.26   308.61   
 304.69   299.36   292.94   285.57   277.32   268.35   258.82   248.33   237.44   225.85   
 214.94   
421318.31 420384.70 418158.67 413658.89 403940.79 388888.28 377098.22 361642.84 345150.36 327368.32 
 308277.41 289749.72 267114.14 243350.77 219552.12 191843.04 165745.73 137906.66 112305.30 91373.75 
 75369.90 62889.45 53275.60 45032.29 39480.72 34912.80 31016.89 27190.66 24434.46 21681.94 
 19300.76 16889.83 14500.89 12602.82 10874.70 9370.47  8079.66  7004.22  6137.66  5429.68  
 4842.89  4342.29  3939.90  3582.05  3246.74  2906.92  2605.82  2304.79  2012.49  1730.66  
 1442.13  1160.60  903.17   695.21   538.95   431.79   351.29   297.90   244.50   191.28   
 157.09   129.04   106.85   90.43    77.51    66.14    56.14    47.50    41.33    36.29    
 31.71    28.17    25.14    21.70    15.95    14.43    13.34    11.99    10.82    9.73     
 8.58     7.16     5.42     3.88     3.06     3.08     3.15     3.23     3.32     3.42     
 3.52     3.65     3.79     3.95     4.13     4.33     4.53     4.76     5.01     5.26     
 5.52     5.77     6.05     6.35     6.67     7.01     7.36     7.73     8.12     8.52     
 8.93     9.37     9.81     10.26    10.75    11.25    11.77    12.32    12.90    13.51    
 14.16    14.92    15.80    16.79    17.82    18.97    20.34    21.84    23.44    25.14    
 27.02    29.10    31.42    33.92    36.69    39.87    43.68    47.92    52.51    57.62    
 63.27    70.09    77.59    85.86    94.90    104.82   115.14   126.86   138.59   150.63   
 162.88   175.34   187.42   199.89   211.84   223.61   235.02   245.65   256.10   265.72   
 274.51   282.42   289.45   295.57   300.72   304.68   307.43   308.64   308.68   307.40   
 304.89   301.17   296.65   290.60   283.72   275.93   267.61   258.35   248.46   238.39   
 214.94   
421318.31 418693.49 415428.41 411012.64 402062.80 387734.63 375773.63 361987.72 346387.87 329250.50 
 311797.91 294183.35 272537.80 248263.53 223989.28 199681.94 172647.80 147196.80 125019.20 105717.50 
 89705.38 76316.64 66182.73 57522.03 50546.74 44624.69 39980.29 36047.72 32682.92 29636.68 
 26710.43 24026.89 21346.44 18955.90 16683.21 14785.92 13094.84 11715.95 10609.68 9689.29  
 8938.38  8316.02  7802.09  7321.57  6880.35  6470.03  6122.35  5797.52  5490.97  5185.09  
 4868.54  4555.28  4220.81  3902.98  3614.91  3365.47  3122.26  2902.98  2691.66  2480.63  
 2294.37  2119.58  1949.65  1794.80  1644.24  1505.64  1370.90  1236.68  1110.78  998.16   
 887.80   786.93   694.23   608.65   528.26   453.75   386.63   324.79   276.89   228.99   
 181.21   143.52   111.90   84.79    53.38    21.14    4.68     3.29     2.85     2.60     
 2.35     2.27     2.21     2.15     2.08     2.02     1.77     1.64     1.65     1.63     
 1.63     1.63     1.64     1.71     1.79     1.85     1.93     1.96     2.02     2.07     
 2.08     2.16     2.26     2.35     2.48     2.64     2.80     2.95     3.04     3.14     
 3.24     3.35     3.48     3.65     3.84     4.07     4.34     4.63     4.95     5.32     
 5.73     6.22     6.76     7.31     7.92     8.60     9.39     10.28    11.35    12.49    
 13.76    15.24    16.95    18.80    20.80    23.06    25.49    28.01    30.70    33.53    
 36.44    39.38    42.52    45.79    49.21    52.80    56.51    60.42    64.59    68.94    
 73.30    77.90    82.78    87.80    93.04    98.54    104.36   110.73   117.58   125.52   
 133.47   142.13   151.56   161.30   171.69   182.64   193.81   204.88   215.87   226.65   
 214.94   
421318.31 418228.79 414422.01 409269.69 400283.55 386299.66 373460.47 359374.13 343623.22 324865.83 
 304388.48 283108.62 260325.40 237569.04 213788.50 190472.84 168010.51 145847.26 124630.93 108081.75 
 91576.49 75071.23 64983.36 57269.07 51192.09 46427.62 42390.20 38887.79 35540.90 32340.94 
 29484.41 26611.46 23754.06 21203.65 18844.81 16877.23 15078.22 13493.17 12247.97 11459.78 
 10676.16 9892.55  9379.91  8909.26  8524.31  8173.62  7857.93  7554.10  7275.11  6989.13  
 6725.78  6482.20  6236.01  5973.07  5702.79  5424.47  5144.88  4870.46  4594.50  4334.49  
 4095.36  3878.55  3672.87  3484.82  3297.35  3119.05  2942.82  2773.79  2609.61  2448.27  
 2298.52  2160.84  2024.03  1888.84  1764.42  1649.28  1541.79  1438.37  1336.57  1241.97  
 1159.60  1077.33  995.05   921.51   851.44   784.45   722.90   667.83   616.98   571.97   
 533.93   494.91   457.35   422.98   390.48   360.31   331.19   304.66   280.90   259.27   
 238.17   219.18   200.68   183.52   167.27   151.37   136.46   123.03   109.62   96.21    
 84.88    74.91    66.58    57.65    49.38    41.74    34.76    29.36    25.06    14.08    
 5.06     3.82     3.74     3.75     3.90     4.06     4.26     4.50     4.78     5.15     
 5.88     6.60     7.38     8.18     9.46     10.79    10.49    10.42    10.97    11.98    
 12.91    14.08    15.41    17.49    19.49    21.15    23.05    25.22    27.45    29.93    
 32.53    35.22    37.10    39.34    42.33    45.31    48.36    51.55    54.76    58.18    
 61.77    65.53    69.43    73.63    77.99    82.86    88.21    94.10    100.87   108.28   
 115.04   124.18   134.54   145.80   157.52   170.31   183.56   197.14   210.54   224.10   
 214.94   
421318.31 417889.18 413184.10 406762.22 397863.68 385308.73 368942.17 351999.11 332875.01 310086.81 
 283930.12 258772.05 233614.00 208497.75 187014.63 166761.07 146686.23 126803.26 107571.17 91464.91 
 78718.98 68899.71 61412.31 55370.80 50525.78 46350.93 42792.13 39265.24 36102.26 32892.68 
 30024.02 27169.76 24561.90 21957.46 19667.23 17571.06 15715.19 14108.30 12746.63 11710.19 
 10914.12 10338.58 9891.94  9508.37  9178.76  8870.05  8580.79  8322.89  8093.67  7869.40  
 7659.68  7437.21  7212.23  6977.58  6744.57  6499.96  6250.86  5991.35  5725.87  5460.40  
 5195.65  4925.01  4659.47  4421.61  4204.56  3984.11  3761.32  3543.46  3339.59  3141.76  
 2950.02  2768.93  2587.84  2407.08  2252.52  2102.01  1955.27  1815.15  1685.95  1570.82  
 1457.22  1355.04  1262.45  1180.55  1104.79  1035.00  970.48   910.46   854.88   809.48   
 771.14   727.90   686.37   648.55   613.42   581.67   552.19   524.34   499.05   476.17   
 455.35   436.22   417.79   400.82   384.34   369.54   355.69   342.45   330.47   319.24   
 307.94   296.94   286.50   275.90   265.50   255.28   244.36   233.45   222.54   212.20   
 200.46   189.33   178.28   167.42   156.15   144.86   133.02   122.11   110.40   97.22    
 83.28    66.78    43.09    27.31    19.63    17.98    16.68    9.01     7.01     7.68     
 8.49     9.48     10.62    11.86    13.25    14.93    16.75    18.78    21.34    24.32    
 27.32    30.51    35.33    50.70    41.22    39.54    42.52    45.58    48.72    51.93    
 55.23    58.57    62.05    65.85    69.74    74.02    78.59    83.52    89.52    95.41    
 102.79   111.42   121.25   133.15   145.11   158.04   172.33   186.98   202.05   217.61   
 214.94   
421318.31 416967.07 410224.51 401094.91 389262.45 373779.84 353777.93 328767.81 298547.87 265520.57 
 232980.59 205295.62 181399.68 160139.02 141188.40 124347.90 111999.52 99684.15 87368.80 78221.52 
 70411.65 64087.05 58520.32 53413.29 48684.60 44195.56 39779.40 35474.14 31358.69 27201.83 
 23450.07 20194.42 17549.92 15604.32 14322.93 13480.75 12811.68 12214.96 11728.53 11242.93 
 10757.32 10344.45 9954.62  9589.36  9278.24  8992.77  8720.69  8481.90  8252.97  8004.12  
 7751.81  7505.97  7272.16  7056.44  6833.29  6608.08  6377.66  6150.79  5931.54  5698.37  
 5455.48  5217.98  4975.87  4740.90  4517.18  4280.39  4045.87  3813.77  3580.10  3359.20  
 3134.80  2927.57  2726.22  2536.34  2355.74  2192.80  2031.62  1868.06  1726.84  1598.21  
 1482.07  1376.42  1275.26  1190.75  1109.90  1029.07  962.18   900.62   843.58   804.47   
 767.45   726.23   687.86   654.08   624.29   597.23   573.56   552.84   534.03   516.93   
 501.17   487.10   473.56   461.23   449.73   438.15   426.77   416.09   405.94   395.91   
 385.98   376.43   367.15   358.34   349.10   340.55   332.00   324.38   316.49   308.60   
 301.26   293.54   285.86   278.92   270.99   262.75   254.29   245.27   236.70   227.60   
 218.36   207.14   196.08   184.55   173.61   162.25   151.10   139.56   127.42   114.44   
 101.44   86.58    55.52    21.48    15.02    14.33    13.98    14.30    16.35    18.71    
 21.25    23.88    26.76    29.85    33.05    36.31    39.98    44.01    47.69    52.50    
 71.96    58.35    61.39    65.87    70.49    75.42    80.36    85.60    91.07    96.87    
